# xPDFsuite Configuration #
[PDF]
wavelength = 0.1
dataformat = QA
inputfile = B3_Bronze-3nm_ss_12.chi
backgroundfile = B3_Li-bkg_ss.chi
mode = xray
bgscale = 0.98705
composition = Ti O2
outputtype = iq
qmaxinst = 23.0
qmin = 0.1
qmax = 23.0
rmax = 30.0
rmin = 0.0
rstep = 0.01
rpoly = 0.9

[Misc]
inputdir = E:/Beamtime/PETRA-III_September-2019/BeamData/processed/Run1/B3/chi/chi_w_sigmas/chi_scaled
savedir = E:/Beamtime/PETRA-III_September-2019/BeamData/processed/Run1/B3
backgroundfilefull = E:/Beamtime/PETRA-III_September-2019/BeamData/processed/Run1/B3/chi/chi_w_sigmas/chi_scaled/B3_Li-bkg_ss.chi

#### start data
#S 1
#L Q($\AA^{-1}$)  intensity(a.u.)
0.111649 0
0.126965 0
0.142282 0
0.157598 0
0.172914 0
0.188231 0
0.203547 0
0.218864 0
0.23418 0
0.249496 0
0.264813 0
0.280129 0
0.295445 0
0.310762 0
0.326078 0
0.341394 0
0.356711 0
0.372027 0
0.387343 0
0.40266 0
0.417976 0
0.433292 0
0.448609 0
0.463925 0
0.479241 0
0.494558 0
0.509874 0
0.525191 0
0.540507 0
0.555823 0
0.57114 0
0.586456 0
0.601772 0
0.617089 0
0.632405 0
0.647721 0
0.663038 0
0.678354 0
0.69367 0
0.708987 0
0.724303 0
0.739619 0
0.754936 0
0.770252 0
0.785568 0
0.800885 0
0.816201 0
0.831518 0
0.846834 0
0.86215 1.37073
0.877467 98413.3
0.892783 99216
0.908099 99988.6
0.923416 101583
0.938732 103973
0.954048 106505
0.969365 108423
0.984681 109126
0.999997 108318
1.01531 106213
1.03063 102052
1.04595 96763.6
1.06126 90137.9
1.07658 82270.9
1.0919 74296.9
1.10721 65414
1.12253 57386.9
1.13784 49307.5
1.15316 42072.4
1.16848 35635.7
1.18379 29642.5
1.19911 24756.2
1.21443 20309.1
1.22974 16557.9
1.24506 13422.4
1.26038 10878.5
1.27569 9070.97
1.29101 7857.23
1.30632 7203.13
1.32164 7127.29
1.33696 7484.25
1.35227 8271.8
1.36759 9448.28
1.38291 10743
1.39822 12256.6
1.41354 13695.7
1.42886 15087.8
1.44417 16490.5
1.45949 17689.7
1.4748 19083.2
1.49012 20602.2
1.50544 22808.2
1.52075 25575.1
1.53607 29429.8
1.55139 34697.2
1.5667 41109.8
1.58202 49747.6
1.59733 59445.3
1.61265 70678.9
1.62797 82952.7
1.64328 95184.2
1.6586 108087
1.67392 119743
1.68923 130563
1.70455 139673
1.71987 146863
1.73518 152336
1.7505 155948
1.76581 158706
1.78113 159893
1.79645 160149
1.81176 159219
1.82708 157444
1.8424 154588
1.85771 151457
1.87303 147649
1.88835 143801
1.90366 139972
1.91898 136331
1.93429 133160
1.94961 130462
1.96493 128392
1.98024 126815
1.99556 125367
2.01088 123862
2.02619 121670
2.04151 118833
2.05683 114896
2.07214 110334
2.08746 105252
2.10277 99788.5
2.11809 94492
2.13341 89253.4
2.14872 84629
2.16404 80594
2.17936 77087
2.19467 74291.9
2.20999 71896.6
2.22531 70093.1
2.24062 68519.9
2.25594 67226.2
2.27125 66006.9
2.28657 64802.4
2.30189 63650.9
2.3172 62403
2.33252 61106.7
2.34784 59674.6
2.36315 58341.9
2.37847 57168.7
2.39379 55988.7
2.4091 55240.2
2.42442 54498.4
2.43973 54190.6
2.45505 53939.2
2.47037 53878.5
2.48568 54003.5
2.501 54178.9
2.51632 54315.4
2.53163 54337.7
2.54695 54352.4
2.56226 54519.6
2.57758 54707
2.5929 54852.4
2.60821 55111.9
2.62353 55215.6
2.63885 55386
2.65416 55574.4
2.66948 55858
2.6848 56253.8
2.70011 56762.4
2.71543 57566.8
2.73074 58459.4
2.74606 59580.1
2.76138 60947.3
2.77669 62670.4
2.79201 64839.6
2.80733 67432.2
2.82264 70911.3
2.83796 75281.5
2.85328 80760.3
2.86859 87649.4
2.88391 95467.7
2.89922 104746
2.91454 114547
2.92986 124755
2.94517 134850
2.96049 143953
2.97581 152001
2.99112 158108
3.00644 162276
3.02176 164218
3.03707 163977
3.05239 161722
3.0677 157945
3.08302 153014
3.09834 147544
3.11365 141951
3.12897 136582
3.14429 131794
3.1596 127629
3.17492 124322
3.19024 121519
3.20555 119297
3.22087 117248
3.23618 115127
3.2515 112803
3.26682 110054
3.28213 106909
3.29745 103200
3.31277 99327.7
3.32808 95227.1
3.3434 91048
3.35872 87222.6
3.37403 83546.1
3.38935 80520.4
3.40466 77946
3.41998 75918.8
3.4353 74351.9
3.45061 73176.3
3.46593 72413
3.48125 71909.5
3.49656 71705.9
3.51188 71686.6
3.52719 71835.6
3.54251 72162.6
3.55783 72420.2
3.57314 72722
3.58846 72892.9
3.60378 72950.1
3.61909 72868.2
3.63441 72695.4
3.64973 72573.2
3.66504 72370.6
3.68036 72396.9
3.69567 72654.1
3.71099 73187.3
3.72631 74108.5
3.74162 75369.5
3.75694 77045.6
3.77226 78936.2
3.78757 80928.8
3.80289 82829
3.81821 84576.1
3.83352 85933.7
3.84884 86922
3.86415 87325.9
3.87947 87160.1
3.89479 86480.3
3.9101 85323.6
3.92542 83832.8
3.94074 82229.2
3.95605 80536.9
3.97137 79084.5
3.98669 77765.6
4.002 76806.5
4.01732 76097.4
4.03263 75700.9
4.04795 75605.5
4.06327 75828.9
4.07858 76295
4.0939 76933.4
4.10922 77726.9
4.12453 78516.1
4.13985 79364.2
4.15517 80107.9
4.17048 80716
4.1858 81091.6
4.20111 81302.2
4.21643 81342.3
4.23175 81209.1
4.24706 80981.8
4.26238 80657.5
4.2777 80394.6
4.29301 80185.1
4.30833 80105.3
4.32365 80170.2
4.33896 80458.1
4.35428 80928.4
4.36959 81377.2
4.38491 81845.3
4.40023 82077.5
4.41554 82022.3
4.43086 81580.7
4.44618 80679.1
4.46149 79261
4.47681 77440
4.49213 75268.7
4.50744 72885.9
4.52276 70345
4.53807 67782.2
4.55339 65373.2
4.56871 63077.6
4.58402 61052.9
4.59934 59222.8
4.61466 57696
4.62997 56468.2
4.64529 55471.9
4.6606 54733.8
4.67592 54207.9
4.69124 53935.2
4.70655 53906.8
4.72187 54122.5
4.73719 54534.5
4.7525 55140.6
4.76782 55911.2
4.78314 56912.1
4.79845 57976.2
4.81377 59163.7
4.82908 60364.3
4.8444 61592.5
4.85972 62804.2
4.87503 63933.8
4.89035 64978.2
4.90567 65923.9
4.92098 66843.5
4.9363 67781.6
4.95162 68762.1
4.96693 69830.1
4.98225 71187.2
4.99756 72981.7
5.01288 75046.4
5.0282 77200.2
5.04351 79433.6
5.05883 81241.3
5.07415 82654.6
5.08946 83475.5
5.10478 83551.8
5.1201 83147.4
5.13541 82050
5.15073 80738.7
5.16604 79156.8
5.18136 77580.7
5.19668 76211.5
5.21199 75138
5.22731 74315.8
5.24263 73758.1
5.25794 73313.6
5.27326 73046.5
5.28858 72882.3
5.30389 72819.6
5.31921 72943.7
5.33452 73210.1
5.34984 73659.8
5.36516 74047.3
5.38047 74244.8
5.39579 73970.6
5.41111 73155.8
5.42642 71739.3
5.44174 69830.4
5.45706 67343.6
5.47237 64547.1
5.48769 61519.3
5.503 58559
5.51832 55925.3
5.53364 53611.4
5.54895 51809.2
5.56427 50471
5.57959 49485.3
5.5949 48879.3
5.61022 48428.1
5.62553 48141.3
5.64085 47855.6
5.65617 47655.2
5.67148 47518.2
5.6868 47467.3
5.70212 47417
5.71743 47396.2
5.73275 47478.4
5.74807 47628.3
5.76338 47850.2
5.7787 48120.5
5.79401 48475.3
5.80933 48945
5.82465 49460.4
5.83996 50051.8
5.85528 50670
5.8706 51342.2
5.88591 52032.7
5.90123 52724
5.91655 53377.9
5.93186 53998.4
5.94718 54534.7
5.96249 54929.1
5.97781 55212.9
5.99313 55311.3
6.00844 55257.3
6.02376 55015.9
6.03908 54673.2
6.05439 54259.1
6.06971 53806.1
6.08503 53315.4
6.10034 52835
6.11566 52437.3
6.13097 52076
6.14629 51747.4
6.16161 51473.4
6.17692 51279.3
6.19224 51213.9
6.20756 51203
6.22287 51349.7
6.23819 51574.8
6.25351 51863.4
6.26882 52131.8
6.28414 52323
6.29945 52408.4
6.31477 52384.1
6.33009 52243
6.3454 51942.6
6.36072 51500.6
6.37604 50980.8
6.39135 50432.7
6.40667 49934
6.42199 49513.9
6.4373 49204.8
6.45262 48982.1
6.46793 48852.8
6.48325 48810.8
6.49857 48845.4
6.51388 48927.7
6.5292 49046.6
6.54452 49206.9
6.55983 49421.8
6.57515 49685.3
6.59046 50009.9
6.60578 50400.9
6.6211 50831.1
6.63641 51304.7
6.65173 51754.7
6.66705 52224.4
6.68236 52686.6
6.69768 53141.5
6.713 53549.7
6.72831 53914.1
6.74363 54204.1
6.75894 54433.7
6.77426 54594.1
6.78958 54717.2
6.80489 54781.7
6.82021 54765.4
6.83553 54685.1
6.85084 54519.7
6.86616 54256
6.88148 53941.1
6.89679 53597.2
6.91211 53225.8
6.92742 52837.1
6.94274 52472
6.95806 52086.6
6.97337 51730.5
6.98869 51403.2
7.00401 51125
7.01932 50898.4
7.03464 50672.3
7.04996 50487.8
7.06527 50362.1
7.08059 50314
7.0959 50295.5
7.11122 50295.1
7.12654 50276.7
7.14185 50262.8
7.15717 50252.9
7.17249 50229.9
7.1878 50168.4
7.20312 50071.6
7.21844 49966.2
7.23375 49859.9
7.24907 49729.4
7.26438 49599.9
7.2797 49444
7.29502 49322.3
7.31033 49166.7
7.32565 49031
7.34097 48880.2
7.35628 48733.1
7.3716 48573.9
7.38692 48400.7
7.40223 48224.4
7.41755 48078
7.43286 47971.2
7.44818 47834.4
7.4635 47698.4
7.47881 47579
7.49413 47490.7
7.50945 47376.1
7.52476 47259.9
7.54008 47117
7.55539 46964.2
7.57071 46784.7
7.58603 46567.2
7.60134 46319
7.61666 46048.5
7.63198 45760.8
7.64729 45490.5
7.66261 45280.7
7.67793 45159.4
7.69324 45141.8
7.70856 45210.7
7.72387 45382.1
7.73919 45644.5
7.75451 45958.4
7.76982 46308.9
7.78514 46644.2
7.80046 46888.4
7.81577 47009
7.83109 46967.2
7.84641 46821.9
7.86172 46527.2
7.87704 46111.9
7.89235 45582.1
7.90767 45057.3
7.92299 44552
7.9383 44121
7.95362 43733.8
7.96894 43411.1
7.98425 43126.4
7.99957 42869.9
8.01489 42661.9
8.0302 42498
8.04552 42371.2
8.06083 42241.3
8.07615 42164.9
8.09147 42146.2
8.10678 42175.7
8.1221 42232.8
8.13742 42325.5
8.15273 42410.8
8.16805 42532.7
8.18337 42691.8
8.19868 42858.9
8.214 43003.3
8.22931 43152.6
8.24463 43275.3
8.25995 43331.4
8.27526 43328.6
8.29058 43266.8
8.3059 43182.4
8.32121 43055.4
8.33653 42916
8.35185 42769.1
8.36716 42576.1
8.38248 42386.4
8.39779 42243.4
8.41311 42103.4
8.42843 41971.3
8.44374 41880.4
8.45906 41792.9
8.47438 41719.1
8.48969 41643.6
8.50501 41608.8
8.52032 41584.1
8.53564 41587.2
8.55096 41621.1
8.56627 41680.8
8.58159 41774.1
8.59691 41900.1
8.61222 42059.3
8.62754 42247.7
8.64286 42454.2
8.65817 42645.6
8.67349 42841.9
8.6888 43042.8
8.70412 43275.9
8.71944 43583
8.73475 43967.2
8.75007 44419
8.76539 44927.6
8.7807 45472.8
8.79602 45978.5
8.81134 46431.1
8.82665 46750
8.84197 46930.8
8.85728 46945.9
8.8726 46859.8
8.88792 46724
8.90323 46585.6
8.91855 46517.3
8.93387 46519.7
8.94918 46625.6
8.9645 46758.8
8.97982 46894.8
8.99513 46945.4
9.01045 46899.3
9.02576 46689.5
9.04108 46302.4
9.0564 45753.2
9.07171 45094.5
9.08703 44389.2
9.10235 43652.9
9.11766 42983.5
9.13298 42375.1
9.1483 41857.7
9.16361 41440.9
9.17893 41137.8
9.19424 40863.4
9.20956 40632
9.22488 40423.5
9.24019 40270.6
9.25551 40141.8
9.27083 40016.9
9.28614 39907.5
9.30146 39834.7
9.31678 39779.3
9.33209 39716.7
9.34741 39654.6
9.36272 39620.6
9.37804 39570.3
9.39336 39545.6
9.40867 39492.3
9.42399 39472.9
9.43931 39496.2
9.45462 39545.3
9.46994 39579.9
9.48525 39638.9
9.50057 39743.9
9.51589 39897.5
9.5312 40020.5
9.54652 40118.8
9.56184 40186.3
9.57715 40187.8
9.59247 40100
9.60779 39945.7
9.6231 39745.6
9.63842 39552
9.65373 39344
9.66905 39153.6
9.68437 38987.6
9.69968 38876
9.715 38800.2
9.73032 38784
9.74563 38805
9.76095 38847.3
9.77627 38900.6
9.79158 38969.1
9.8069 39045.2
9.82221 39126.8
9.83753 39203.2
9.85285 39266
9.86816 39322.3
9.88348 39350.7
9.8988 39392.2
9.91411 39441.9
9.92943 39531.2
9.94475 39636.8
9.96006 39757.8
9.97538 39884.2
9.99069 40056.3
10.006 40238.5
10.0213 40432.3
10.0366 40615
10.052 40806.7
10.0673 41002
10.0826 41190
10.0979 41409
10.1132 41638.8
10.1285 41952.6
10.1439 42256.1
10.1592 42556.8
10.1745 42788
10.1898 42937.1
10.2051 42977.6
10.2204 42969.3
10.2358 42945.4
10.2511 42926.7
10.2664 42918.2
10.2817 42972.4
10.297 43101.9
10.3123 43318.4
10.3277 43504.1
10.343 43645.4
10.3583 43679.9
10.3736 43636.8
10.3889 43501.9
10.4042 43297.9
10.4196 43019.2
10.4349 42732.5
10.4502 42454.1
10.4655 42237.4
10.4808 42073
10.4961 41969.8
10.5115 41887.5
10.5268 41848.6
10.5421 41848.7
10.5574 41881.8
10.5727 41929
10.588 41979.2
10.6033 42007.8
10.6187 42026.8
10.634 41985.9
10.6493 41926.4
10.6646 41832.4
10.6799 41679.4
10.6952 41483.8
10.7106 41294.3
10.7259 41119
10.7412 40981.3
10.7565 40879.7
10.7718 40828.2
10.7871 40789.7
10.8025 40776.4
10.8178 40769.5
10.8331 40732.2
10.8484 40655.6
10.8637 40507.9
10.879 40339.6
10.8944 40111.5
10.9097 39836.5
10.925 39552.2
10.9403 39266.2
10.9556 38997.3
10.9709 38775.4
10.9863 38590
11.0016 38421.4
11.0169 38270.4
11.0322 38097.1
11.0475 37915.5
11.0628 37732.8
11.0782 37545
11.0935 37343
11.1088 37160.2
11.1241 37012
11.1394 36880.8
11.1547 36787.3
11.1701 36672
11.1854 36564.9
11.2007 36474.9
11.216 36371.7
11.2313 36275.1
11.2466 36182.7
11.262 36080.4
11.2773 36011.7
11.2926 35971.4
11.3079 35960.1
11.3232 35942.8
11.3385 35898.9
11.3538 35848
11.3692 35810.7
11.3845 35778.4
11.3998 35756
11.4151 35726.3
11.4304 35738.1
11.4457 35758.3
11.4611 35786.9
11.4764 35795.3
11.4917 35815.3
11.507 35864.5
11.5223 35967
11.5376 36043.6
11.553 36114.1
11.5683 36155.7
11.5836 36181
11.5989 36172.5
11.6142 36161.3
11.6295 36124.8
11.6449 36078
11.6602 36016.9
11.6755 35957.8
11.6908 35900.9
11.7061 35854.8
11.7214 35825.2
11.7368 35828
11.7521 35841.1
11.7674 35897.8
11.7827 35938.8
11.798 35974.1
11.8133 35983.5
11.8287 35970.2
11.844 35941.1
11.8593 35895.7
11.8746 35836.5
11.8899 35804.8
11.9052 35762.4
11.9206 35737.5
11.9359 35721.7
11.9512 35731.8
11.9665 35740.8
11.9818 35771.2
11.9971 35784.4
12.0125 35773.8
12.0278 35732.5
12.0431 35697.6
12.0584 35663.9
12.0737 35637.5
12.089 35597.1
12.1044 35548.1
12.1197 35506.4
12.135 35458.7
12.1503 35428.5
12.1656 35382.5
12.1809 35350
12.1962 35320.7
12.2116 35280.2
12.2269 35248.6
12.2422 35225.5
12.2575 35204.6
12.2728 35190.8
12.2881 35164.6
12.3035 35161
12.3188 35154.5
12.3341 35138.6
12.3494 35111.8
12.3647 35109.9
12.38 35112.2
12.3954 35100.1
12.4107 35095.1
12.426 35097.1
12.4413 35098.4
12.4566 35095.7
12.4719 35070
12.4873 35041.9
12.5026 35015.8
12.5179 34994.5
12.5332 34965.1
12.5485 34942
12.5638 34946.5
12.5792 34960.5
12.5945 34956.3
12.6098 34936
12.6251 34930.8
12.6404 34952.8
12.6557 34969.6
12.6711 34988.3
12.6864 34993.7
12.7017 34999.9
12.717 34996.1
12.7323 34994.7
12.7476 34997.7
12.763 35009.4
12.7783 35047.9
12.7936 35128.6
12.8089 35200.9
12.8242 35270.2
12.8395 35294.9
12.8549 35326.1
12.8702 35284.3
12.8855 35195.1
12.9008 35089.1
12.9161 35010.1
12.9314 34943.2
12.9467 34866.5
12.9621 34819.6
12.9774 34792.4
12.9927 34761.4
13.008 34754
13.0233 34751.6
13.0386 34757.6
13.054 34759.4
13.0693 34752.5
13.0846 34725.2
13.0999 34737
13.1152 34749.6
13.1305 34765.6
13.1459 34758.9
13.1612 34755.1
13.1765 34733.6
13.1918 34719.9
13.2071 34717.3
13.2224 34740.1
13.2378 34768.4
13.2531 34805.6
13.2684 34893.5
13.2837 34932.6
13.299 34959.1
13.3143 35020.5
13.3297 35043.8
13.345 35067.7
13.3603 35116.1
13.3756 35211.5
13.3909 35338.1
13.4062 35477.8
13.4216 35661.6
13.4369 35854.7
13.4522 36037.7
13.4675 36227
13.4828 36371.4
13.4981 36445.8
13.5135 36484
13.5288 36499
13.5441 36540.2
13.5594 36586.6
13.5747 36646.8
13.59 36678.3
13.6054 36657.2
13.6207 36575.7
13.636 36433.1
13.6513 36243.6
13.6666 36035.1
13.6819 35833.8
13.6973 35636.6
13.7126 35457
13.7279 35317.2
13.7432 35225.7
13.7585 35163.3
13.7738 35085
13.7891 35006.2
13.8045 34933.5
13.8198 34874.8
13.8351 34837.1
13.8504 34790.8
13.8657 34760.5
13.881 34735.5
13.8964 34731.5
13.9117 34755.4
13.927 34779.6
13.9423 34814.9
13.9576 34824.6
13.9729 34789.4
13.9883 34740.3
14.0036 34682
14.0189 34607.2
14.0342 34520.5
14.0495 34420.8
14.0648 34281.6
14.0802 34121.4
14.0955 33984.7
14.1108 33880.7
14.1261 33777.9
14.1414 33695.9
14.1567 33626.7
14.1721 33559.1
14.1874 33515.1
14.2027 33459.2
14.218 33416.2
14.2333 33392.5
14.2486 33364
14.264 33322.1
14.2793 33315.3
14.2946 33323
14.3099 33299.3
14.3252 33260.1
14.3405 33240.9
14.3559 33220.5
14.3712 33211.5
14.3865 33211.9
14.4018 33198.4
14.4171 33199.9
14.4324 33180.4
14.4478 33146.5
14.4631 33116.5
14.4784 33102.7
14.4937 33101.9
14.509 33097.3
14.5243 33092.4
14.5397 33082.2
14.555 33082.6
14.5703 33090.8
14.5856 33057.9
14.6009 33010.8
14.6162 32980.2
14.6315 32959
14.6469 32922.8
14.6622 32915.2
14.6775 32916.5
14.6928 32882.4
14.7081 32812.8
14.7234 32746.6
14.7388 32700
14.7541 32635.7
14.7694 32578.8
14.7847 32547.3
14.8 32524
14.8153 32475.3
14.8307 32433.3
14.846 32412.1
14.8613 32388.8
14.8766 32348.7
14.8919 32296.3
14.9072 32270.6
14.9226 32250.1
14.9379 32220.7
14.9532 32190.1
14.9685 32196.8
14.9838 32208.9
14.9991 32200.5
15.0145 32164.5
15.0298 32153.6
15.0451 32140.9
15.0604 32111.6
15.0757 32119.1
15.091 32135
15.1064 32135.5
15.1217 32147.4
15.137 32128.6
15.1523 32117.3
15.1676 32138.3
15.1829 32168.2
15.1983 32210.1
15.2136 32248.9
15.2289 32306.3
15.2442 32360.3
15.2595 32364.1
15.2748 32371.5
15.2902 32397
15.3055 32445.4
15.3208 32461.3
15.3361 32498.7
15.3514 32537.3
15.3667 32566.2
15.382 32580.1
15.3974 32567.9
15.4127 32559.9
15.428 32536
15.4433 32493
15.4586 32447.2
15.4739 32380.2
15.4893 32321.4
15.5046 32276.8
15.5199 32243
15.5352 32224.7
15.5505 32191.3
15.5658 32174.4
15.5812 32161.2
15.5965 32161.1
15.6118 32132.4
15.6271 32108
15.6424 32092.6
15.6577 32082.9
15.6731 32066.4
15.6884 32079.7
15.7037 32080.2
15.719 32054.5
15.7343 32025
15.7496 31988
15.765 31938.7
15.7803 31914.6
15.7956 31884
15.8109 31844.7
15.8262 31815.1
15.8415 31776.8
15.8569 31720.4
15.8722 31664.1
15.8875 31604
15.9028 31535.1
15.9181 31493.8
15.9334 31455.6
15.9488 31414.6
15.9641 31372.4
15.9794 31352.7
15.9947 31358.8
16.01 31313.2
16.0253 31302.6
16.0407 31292.9
16.056 31255.6
16.0713 31228.6
16.0866 31224
16.1019 31228.1
16.1172 31227.5
16.1326 31231.4
16.1479 31213.1
16.1632 31205.3
16.1785 31188.5
16.1938 31163.9
16.2091 31171.8
16.2244 31172.4
16.2398 31140.5
16.2551 31134.8
16.2704 31157.7
16.2857 31187
16.301 31197
16.3163 31177.6
16.3317 31163.5
16.347 31182.3
16.3623 31188.5
16.3776 31188.4
16.3929 31173.2
16.4082 31152
16.4236 31148.7
16.4389 31131.7
16.4542 31083.6
16.4695 31019.2
16.4848 30974.9
16.5001 30947.9
16.5155 30939.9
16.5308 30915.7
16.5461 30889
16.5614 30863.6
16.5767 30831.4
16.592 30793.8
16.6074 30721.6
16.6227 30681.8
16.638 30653.2
16.6533 30629.2
16.6686 30610.2
16.6839 30591.6
16.6993 30557.9
16.7146 30513.1
16.7299 30517.7
16.7452 30537.5
16.7605 30529.6
16.7758 30494.4
16.7912 30441.7
16.8065 30410.9
16.8218 30400.6
16.8371 30387.2
16.8524 30370.6
16.8677 30358.6
16.8831 30342.7
16.8984 30335.3
16.9137 30290
16.929 30252.6
16.9443 30273.6
16.9596 30302.6
16.9749 30286
16.9903 30246.3
17.0056 30207.9
17.0209 30183.7
17.0362 30172
17.0515 30149.6
17.0668 30119.9
17.0822 30128.1
17.0975 30126.3
17.1128 30082.5
17.1281 30043.8
17.1434 30008.9
17.1587 29997.1
17.1741 29988.3
17.1894 29949.8
17.2047 29948.7
17.22 29933.9
17.2353 29913.3
17.2506 29885.8
17.266 29852
17.2813 29855.5
17.2966 29864.6
17.3119 29815.2
17.3272 29780.8
17.3425 29796.1
17.3579 29800.1
17.3732 29751.6
17.3885 29735.8
17.4038 29770
17.4191 29785.9
17.4344 29770.4
17.4498 29753.4
17.4651 29766.4
17.4804 29759.9
17.4957 29734
17.511 29711.7
17.5263 29728.1
17.5417 29722.2
17.557 29690.3
17.5723 29706.9
17.5876 29705.7
17.6029 29710.2
17.6182 29703.6
17.6336 29706.6
17.6489 29724.5
17.6642 29736.5
17.6795 29757.7
17.6948 29772.9
17.7101 29744.3
17.7255 29737.2
17.7408 29756.1
17.7561 29715.6
17.7714 29693.1
17.7867 29710.1
17.802 29717.1
17.8173 29705.3
17.8327 29672.4
17.848 29649.6
17.8633 29634.5
17.8786 29664.7
17.8939 29675.1
17.9092 29660.6
17.9246 29644.5
17.9399 29650.6
17.9552 29633.1
17.9705 29617.2
17.9858 29605.3
18.0011 29558.4
18.0165 29547.9
18.0318 29541.4
18.0471 29528.2
18.0624 29495.1
18.0777 29467.5
18.093 29482.7
18.1084 29504.9
18.1237 29510.2
18.139 29502.8
18.1543 29463.3
18.1696 29446
18.1849 29407.9
18.2003 29387.6
18.2156 29424.2
18.2309 29437.2
18.2462 29431.3
18.2615 29418.1
18.2768 29414
18.2922 29411.7
18.3075 29448.5
18.3228 29512.3
18.3381 29516.8
18.3534 29498.3
18.3687 29517.9
18.3841 29532.7
18.3994 29560.5
18.4147 29595.3
18.43 29589.6
18.4453 29564
18.4606 29541.3
18.476 29554.1
18.4913 29529.4
18.5066 29492.2
18.5219 29495.1
18.5372 29447.4
18.5525 29400
18.5679 29383.1
18.5832 29378.8
18.5985 29369.2
18.6138 29359.4
18.6291 29339.5
18.6444 29285.8
18.6597 29261
18.6751 29235.4
18.6904 29236.8
18.7057 29222.8
18.721 29210.1
18.7363 29169.5
18.7516 29157.7
18.767 29173.5
18.7823 29142
18.7976 29077.4
18.8129 29055.2
18.8282 29049.8
18.8435 29045
18.8589 29021.7
18.8742 28966.7
18.8895 28897.7
18.9048 28858.6
18.9201 28809.1
18.9354 28802.2
18.9508 28833.6
18.9661 28827.3
18.9814 28805.2
18.9967 28755.6
19.012 28689.8
19.0273 28656.2
19.0427 28662.9
19.058 28651.7
19.0733 28634.8
19.0886 28631.1
19.1039 28645.1
19.1192 28631.3
19.1346 28625.7
19.1499 28635.2
19.1652 28612.1
19.1805 28581.1
19.1958 28598.1
19.2111 28606.7
19.2265 28604.7
19.2418 28618.2
19.2571 28572.2
19.2724 28551.1
19.2877 28538.5
19.303 28514.2
19.3184 28503
19.3337 28468.2
19.349 28443.8
19.3643 28379.9
19.3796 28326.4
19.3949 28311.9
19.4102 28326.7
19.4256 28322.7
19.4409 28298.9
19.4562 28281
19.4715 28262.6
19.4868 28251.4
19.5021 28231.1
19.5175 28232.7
19.5328 28229.7
19.5481 28192.3
19.5634 28163
19.5787 28129.1
19.594 28103.1
19.6094 28124.2
19.6247 28113.7
19.64 28102.3
19.6553 28116.1
19.6706 28070
19.6859 28046.2
19.7013 28064.1
19.7166 28055.1
19.7319 28037
19.7472 28018.4
19.7625 27984.3
19.7778 27957.2
19.7932 27955.1
19.8085 27948
19.8238 27968
19.8391 27959.9
19.8544 27923
19.8697 27918.4
19.8851 27928
19.9004 27938
19.9157 27922.1
19.931 27878.3
19.9463 27895.2
19.9616 27862.1
19.977 27847.7
19.9923 27898.9
20.0076 27885.8
20.0229 27881.8
20.0382 27857.9
20.0535 27824.8
20.0689 27810.3
20.0842 27806.7
20.0995 27825.4
20.1148 27812.8
20.1301 27793.2
20.1454 27767.1
20.1608 27789.5
20.1761 27813.5
20.1914 27781.5
20.2067 27708.9
20.222 27720.1
20.2373 27771.8
20.2526 27795.6
20.268 27797.5
20.2833 27766.6
20.2986 27742.3
20.3139 27744.1
20.3292 27735.6
20.3445 27724.7
20.3599 27728.9
20.3752 27718.6
20.3905 27717.4
20.4058 27728.5
20.4211 27728.8
20.4364 27747.3
20.4518 27755.6
20.4671 27725.5
20.4824 27741.9
20.4977 27737.1
20.513 27720.1
20.5283 27725.2
20.5437 27703.5
20.559 27708.7
20.5743 27685.7
20.5896 27694.8
20.6049 27731.6
20.6202 27687.6
20.6356 27644.1
20.6509 27658.6
20.6662 27681.4
20.6815 27682.3
20.6968 27688.6
20.7121 27673.8
20.7275 27648.9
20.7428 27670.7
20.7581 27659.9
20.7734 27617.9
20.7887 27615.7
20.804 27583.5
20.8194 27574
20.8347 27590.8
20.85 27611.7
20.8653 27592.8
20.8806 27561.9
20.8959 27539.4
20.9113 27515.1
20.9266 27540.6
20.9419 27546.7
20.9572 27530.5
20.9725 27514.6
20.9878 27480.7
21.0031 27458.7
21.0185 27502.6
21.0338 27512.8
21.0491 27497
21.0644 27508.2
21.0797 27483.5
21.095 27483.1
21.1104 27501.8
21.1257 27508.2
21.141 27479.8
21.1563 27468.2
21.1716 27506.2
21.1869 27534.9
21.2023 27520.2
21.2176 27478.2
21.2329 27446.8
21.2482 27468.3
21.2635 27457.8
21.2788 27452.8
21.2942 27433.1
21.3095 27388.1
21.3248 27413.8
21.3401 27456.1
21.3554 27492.4
21.3707 27465.5
21.3861 27491.6
21.4014 27437.8
21.4167 27433.4
21.432 27439.6
21.4473 27430.4
21.4626 27395.2
21.478 27378.6
21.4933 27396.6
21.5086 27420.4
21.5239 27429.9
21.5392 27459.5
21.5545 27477
21.5699 27442.6
21.5852 27417
21.6005 27409.4
21.6158 27419.4
21.6311 27417.2
21.6464 27387.9
21.6618 27365.7
21.6771 27378.6
21.6924 27378.7
21.7077 27393.6
21.723 27396.4
21.7383 27429.6
21.7537 27438.3
21.769 27419.2
21.7843 27442.2
21.7996 27430.1
21.8149 27444.3
21.8302 27413.7
21.8455 27357.6
21.8609 27355.9
21.8762 27399.6
21.8915 27437.7
21.9068 27445.9
21.9221 27484.5
21.9374 27510.8
21.9528 27515.5
21.9681 27478.5
21.9834 27490.5
21.9987 27489.5
22.014 27446.1
22.0293 27490
22.0447 27531.8
22.06 27543.7
22.0753 27520.2
22.0906 27527.7
22.1059 27540.9
22.1212 27554.2
22.1366 27568.7
22.1519 27591.1
22.1672 27597.7
22.1825 27611.8
22.1978 27609.9
22.2131 27587.7
22.2285 27580.6
22.2438 27564.3
22.2591 27535.5
22.2744 27519
22.2897 27532.2
22.305 27556.6
22.3204 27590.2
22.3357 27605
22.351 27610.4
22.3663 27611.1
22.3816 27660.9
22.3969 27700.3
22.4123 27672.1
22.4276 27673
22.4429 27678.7
22.4582 27665.2
22.4735 27661.2
22.4888 27644.8
22.5042 27636.2
22.5195 27657.2
22.5348 27658.3
22.5501 27699.3
22.5654 27672.8
22.5807 27663.1
22.596 27653.8
22.6114 27658.8
22.6267 27637.4
22.642 27660.4
22.6573 27679.5
22.6726 27669.9
22.6879 27667.5
22.7033 27663.7
22.7186 27659
22.7339 27645.5
22.7492 27656.2
22.7645 27674.6
22.7798 27678
22.7952 27670.9
22.8105 27680.2
22.8258 27662.5
22.8411 27621.1
22.8564 27712
22.8717 27678.7
22.8871 27634.3
22.9024 27652.8
22.9177 27657.4
22.933 27685.3
22.9483 27714.8
22.9636 27768.3
22.979 27808.9
22.9943 27836.7
