# xPDFsuite Configuration #
[PDF]
wavelength = 0.1
dataformat = QA
inputfile = B3_Bronze-3nm_ss_15.chi
backgroundfile = B3_Li-bkg_ss.chi
mode = xray
bgscale = 0.98705
composition = Ti O2
outputtype = iq
qmaxinst = 23.0
qmin = 0.1
qmax = 23.0
rmax = 30.0
rmin = 0.0
rstep = 0.01
rpoly = 0.9

[Misc]
inputdir = E:/Beamtime/PETRA-III_September-2019/BeamData/processed/Run1/B3/chi/chi_w_sigmas/chi_scaled
savedir = E:/Beamtime/PETRA-III_September-2019/BeamData/processed/Run1/B3
backgroundfilefull = E:/Beamtime/PETRA-III_September-2019/BeamData/processed/Run1/B3/chi/chi_w_sigmas/chi_scaled/B3_Li-bkg_ss.chi

#### start data
#S 1
#L Q($\AA^{-1}$)  intensity(a.u.)
0.111649 0
0.126965 0
0.142282 0
0.157598 0
0.172914 0
0.188231 0
0.203547 0
0.218864 0
0.23418 0
0.249496 0
0.264813 0
0.280129 0
0.295445 0
0.310762 0
0.326078 0
0.341394 0
0.356711 0
0.372027 0
0.387343 0
0.40266 0
0.417976 0
0.433292 0
0.448609 0
0.463925 0
0.479241 0
0.494558 0
0.509874 0
0.525191 0
0.540507 0
0.555823 0
0.57114 0
0.586456 0
0.601772 0
0.617089 0
0.632405 0
0.647721 0
0.663038 0
0.678354 0
0.69367 0
0.708987 0
0.724303 0
0.739619 0
0.754936 0
0.770252 0
0.785568 0
0.800885 0
0.816201 0
0.831518 0
0.846834 0
0.86215 1.446
0.877467 103818
0.892783 104580
0.908099 105572
0.923416 107386
0.938732 110199
0.954048 112748
0.969365 114559
0.984681 115016
0.999997 113729
1.01531 110918
1.03063 105868
1.04595 99746.2
1.06126 92252.1
1.07658 83625.9
1.0919 75092.3
1.10721 65582.1
1.12253 56974.6
1.13784 48392.8
1.15316 40704.9
1.16848 33963.3
1.18379 27737.6
1.19911 22693.7
1.21443 18220.9
1.22974 14524.5
1.24506 11560.5
1.26038 9194.73
1.27569 7625.47
1.29101 6572.26
1.30632 6039.78
1.32164 6119.3
1.33696 6620.85
1.35227 7505.81
1.36759 8713.23
1.38291 10113.9
1.39822 11785.5
1.41354 13363.1
1.42886 14880.8
1.44417 16339.7
1.45949 17802.8
1.4748 19285.1
1.49012 20977.5
1.50544 23186.2
1.52075 26100.8
1.53607 30077.2
1.55139 35545.2
1.5667 42104.7
1.58202 50889.9
1.59733 60534.6
1.61265 71406.2
1.62797 82995.1
1.64328 94372.7
1.6586 105832
1.67392 115897
1.68923 124604
1.70455 131456
1.71987 136403
1.73518 139773
1.7505 141588
1.76581 142799
1.78113 143078
1.79645 142999
1.81176 142255
1.82708 141104
1.8424 139180
1.85771 137114
1.87303 134553
1.88835 131763
1.90366 128841
1.91898 125795
1.93429 122954
1.94961 120257
1.96493 117997
1.98024 116080
1.99556 114154
2.01088 112179
2.02619 109490
2.04151 106261
2.05683 102111
2.07214 97605.8
2.08746 92872.3
2.10277 88016.8
2.11809 83545.6
2.13341 79269.8
2.14872 75596.6
2.16404 72358.1
2.17936 69676.5
2.19467 67599.6
2.20999 65856.9
2.22531 64534.1
2.24062 63313.8
2.25594 62239.8
2.27125 61210.5
2.28657 60193.2
2.30189 59257.5
2.3172 58260.5
2.33252 57281.2
2.34784 56274.2
2.36315 55385.6
2.37847 54645.3
2.39379 53901.4
2.4091 53494.9
2.42442 52991.4
2.43973 52932.6
2.45505 52869.4
2.47037 52884.5
2.48568 53112.4
2.501 53450.8
2.51632 54154.1
2.53163 54143.2
2.54695 53946.9
2.56226 54042.4
2.57758 54143.6
2.5929 54193.2
2.60821 54382
2.62353 54468.9
2.63885 54618.6
2.65416 54809.8
2.66948 55014.5
2.6848 55394.2
2.70011 55881.8
2.71543 56805.7
2.73074 57948.3
2.74606 59560.3
2.76138 61576.2
2.77669 64152.5
2.79201 67420.7
2.80733 71255.5
2.82264 76153
2.83796 82022.2
2.85328 89062
2.86859 97595.2
2.88391 106895
2.89922 117513
2.91454 128310
2.92986 139019
2.94517 149097
2.96049 157839
2.97581 165159
2.99112 170266
3.00644 173187
3.02176 173824
3.03707 172389
3.05239 169227
3.0677 164924
3.08302 159720
3.09834 154242
3.11365 148848
3.12897 143743
3.14429 139065
3.1596 134766
3.17492 131043
3.19024 127287
3.20555 123869
3.22087 120347
3.23618 116679
3.2515 112890
3.26682 108752
3.28213 104495
3.29745 99928.2
3.31277 95484.2
3.32808 91045
3.3434 86761.3
3.35872 83036.4
3.37403 79647.1
3.38935 76956.5
3.40466 74706.7
3.41998 72980.8
3.4353 71692.4
3.45061 70767.1
3.46593 70262.8
3.48125 69942.5
3.49656 69848
3.51188 69815.4
3.52719 69875.7
3.54251 69978.7
3.55783 69938.6
3.57314 69813.7
3.58846 69495.7
3.60378 69113.1
3.61909 68704.8
3.63441 68275.1
3.64973 67986
3.66504 67806
3.68036 67960.5
3.69567 68508.9
3.71099 69422.6
3.72631 70781.9
3.74162 72491.7
3.75694 74503.1
3.77226 76566.5
3.78757 78526.9
3.80289 80251.6
3.81821 81616.9
3.83352 82467.1
3.84884 82807.9
3.86415 82593.8
3.87947 81820.7
3.89479 80619.6
3.9101 79130.2
3.92542 77453.8
3.94074 75843.4
3.95605 74320.3
3.97137 73159.9
3.98669 72223.9
4.002 71635
4.01732 71311.3
4.03263 71315.9
4.04795 71589.5
4.06327 72166
4.07858 72977.4
4.0939 74047.2
4.10922 75316.4
4.12453 76741.1
4.13985 78295.4
4.15517 79760.4
4.17048 81108
4.1858 82254.2
4.20111 83238.4
4.21643 84091.7
4.23175 84672.6
4.24706 85061.5
4.26238 85314
4.2777 85639.2
4.29301 85953.2
4.30833 86306.7
4.32365 86668.8
4.33896 86998.3
4.35428 87316.8
4.36959 87349.8
4.38491 87136.6
4.40023 86468.6
4.41554 85291.1
4.43086 83620.5
4.44618 81455.2
4.46149 78770.3
4.47681 75812.2
4.49213 72693.3
4.50744 69668.3
4.52276 66818.3
4.53807 64180.9
4.55339 61903.7
4.56871 59876.1
4.58402 58217.1
4.59934 56807.4
4.61466 55680.7
4.62997 54826.8
4.64529 54202.3
4.6606 53844.3
4.67592 53699.4
4.69124 53785
4.70655 54086
4.72187 54557
4.73719 55178.1
4.7525 55913.1
4.76782 56734.3
4.78314 57660.4
4.79845 58586.6
4.81377 59510.8
4.82908 60398.4
4.8444 61259.8
4.85972 62111.6
4.87503 62918.8
4.89035 63672.6
4.90567 64388.6
4.92098 65128.3
4.9363 65937.2
4.95162 66861.8
4.96693 67932.5
4.98225 69281.2
4.99756 71106.9
5.01288 73199.3
5.0282 75386.3
5.04351 77647.7
5.05883 79541.4
5.07415 81030.4
5.08946 81978.7
5.10478 82148
5.1201 81889.4
5.13541 80952.1
5.15073 79844.5
5.16604 78454.6
5.18136 77134.4
5.19668 76043.5
5.21199 75257.8
5.22731 74706.9
5.24263 74345
5.25794 73989
5.27326 73673.7
5.28858 73340.4
5.30389 73040.4
5.31921 72853.2
5.33452 72777.4
5.34984 72801.4
5.36516 72794.7
5.38047 72563.8
5.39579 71944.4
5.41111 70855.7
5.42642 69261.4
5.44174 67278.2
5.45706 64844.5
5.47237 62157.2
5.48769 59308.3
5.503 56567.3
5.51832 54165.3
5.53364 52086.3
5.54895 50571.3
5.56427 49515.3
5.57959 48841.3
5.5949 48468.6
5.61022 48225.6
5.62553 48105.5
5.64085 47959.5
5.65617 47840.6
5.67148 47756.1
5.6868 47679.1
5.70212 47603.1
5.71743 47506
5.73275 47479.2
5.74807 47444.5
5.76338 47525.5
5.7787 47711.6
5.79401 48028
5.80933 48446.7
5.82465 48936.2
5.83996 49526.6
5.85528 50183.5
5.8706 50916.3
5.88591 51690.7
5.90123 52467
5.91655 53190.9
5.93186 53815.4
5.94718 54296.2
5.96249 54609.9
5.97781 54769.2
5.99313 54700.6
6.00844 54469.9
6.02376 54023.7
6.03908 53485.8
6.05439 52839.4
6.06971 52182.1
6.08503 51524.8
6.10034 50944.6
6.11566 50471.7
6.13097 50042.2
6.14629 49661.2
6.16161 49351
6.17692 49131.4
6.19224 49050.7
6.20756 49038
6.22287 49196.8
6.23819 49464.8
6.25351 49827.4
6.26882 50214.2
6.28414 50554.1
6.29945 50754
6.31477 50768.4
6.33009 50674.5
6.3454 50435.7
6.36072 50119.9
6.37604 49752.3
6.39135 49416.7
6.40667 49122.8
6.42199 48912
6.4373 48766.2
6.45262 48710.5
6.46793 48759.3
6.48325 48907.5
6.49857 49113.3
6.51388 49400.6
6.5292 49720.2
6.54452 50072
6.55983 50448.5
6.57515 50882.2
6.59046 51331.4
6.60578 51831.3
6.6211 52333.5
6.63641 52857.2
6.65173 53326
6.66705 53783.3
6.68236 54193.9
6.69768 54567.5
6.713 54855.1
6.72831 55029.8
6.74363 55124.7
6.75894 55108.1
6.77426 55001.1
6.78958 54813.9
6.80489 54611.9
6.82021 54345.3
6.83553 53982.9
6.85084 53578.7
6.86616 53159.8
6.88148 52740.3
6.89679 52309.1
6.91211 51885.1
6.92742 51474.2
6.94274 51086.3
6.95806 50682.2
6.97337 50348.4
6.98869 50057.4
7.00401 49840.8
7.01932 49652.4
7.03464 49498.4
7.04996 49395.6
7.06527 49374.3
7.08059 49394.8
7.0959 49428.9
7.11122 49460.7
7.12654 49492.2
7.14185 49524.7
7.15717 49558.4
7.17249 49549.7
7.1878 49520.7
7.20312 49510.1
7.21844 49494.7
7.23375 49481.2
7.24907 49446.1
7.26438 49423
7.2797 49361.6
7.29502 49306.4
7.31033 49226.5
7.32565 49148
7.34097 49055.8
7.35628 48955.2
7.3716 48799.5
7.38692 48605.8
7.40223 48386.5
7.41755 48150.7
7.43286 47871.7
7.44818 47572.3
7.4635 47300.2
7.47881 47033.8
7.49413 46802.8
7.50945 46612.4
7.52476 46434.3
7.54008 46230.7
7.55539 46015.1
7.57071 45792
7.58603 45545.6
7.60134 45289.3
7.61666 45005.1
7.63198 44732.6
7.64729 44481.1
7.66261 44267.3
7.67793 44159.3
7.69324 44127.9
7.70856 44188.5
7.72387 44325.9
7.73919 44555.7
7.75451 44851.7
7.76982 45160.4
7.78514 45432.8
7.80046 45635.1
7.81577 45724
7.83109 45665.9
7.84641 45483.9
7.86172 45158.4
7.87704 44742.5
7.89235 44256.2
7.90767 43802.3
7.92299 43342.7
7.9383 42972.2
7.95362 42646
7.96894 42399.7
7.98425 42198
7.99957 42080.3
8.01489 41987.9
8.0302 41921.7
8.04552 41873.8
8.06083 41851
8.07615 41815.7
8.09147 41827.4
8.10678 41852.9
8.1221 41882.7
8.13742 41902.8
8.15273 41928.7
8.16805 41986.7
8.18337 42047
8.19868 42104.3
8.214 42165.1
8.22931 42222.3
8.24463 42286.7
8.25995 42297.8
8.27526 42272.2
8.29058 42192.6
8.3059 42094.1
8.32121 41952.7
8.33653 41780.3
8.35185 41599.2
8.36716 41404.3
8.38248 41228.6
8.39779 41077.6
8.41311 40943.8
8.42843 40814.8
8.44374 40737.2
8.45906 40693.1
8.47438 40694.5
8.48969 40731.6
8.50501 40791.1
8.52032 40886.7
8.53564 41018.4
8.55096 41182.6
8.56627 41317
8.58159 41484.7
8.59691 41647.7
8.61222 41879.4
8.62754 42085
8.64286 42291.1
8.65817 42461.3
8.67349 42621.1
8.6888 42743.1
8.70412 42897.5
8.71944 43110
8.73475 43410.9
8.75007 43782.1
8.76539 44245.9
8.7807 44752.7
8.79602 45229
8.81134 45595.7
8.82665 45843
8.84197 45958.1
8.85728 45912.8
8.8726 45757.3
8.88792 45568.5
8.90323 45393.2
8.91855 45310.3
8.93387 45333.1
8.94918 45513
8.9645 45731.5
8.97982 45913
8.99513 45999.2
9.01045 45995.1
9.02576 45821
9.04108 45500.6
9.0564 45020.1
9.07171 44429.6
9.08703 43764.7
9.10235 43070.6
9.11766 42432.8
9.13298 41884.9
9.1483 41431.2
9.16361 41050.3
9.17893 40785.5
9.19424 40572
9.20956 40381.2
9.22488 40207.5
9.24019 40068.1
9.25551 39950.9
9.27083 39873.1
9.28614 39766.8
9.30146 39672.5
9.31678 39545.3
9.33209 39418.8
9.34741 39287
9.36272 39180.2
9.37804 39062.1
9.39336 38967.5
9.40867 38881.2
9.42399 38819
9.43931 38794.3
9.45462 38810.8
9.46994 38848.9
9.48525 38902.3
9.50057 39015.7
9.51589 39206.1
9.5312 39383.8
9.54652 39519.4
9.56184 39623.4
9.57715 39659.1
9.59247 39619.7
9.60779 39489.5
9.6231 39314.7
9.63842 39125
9.65373 38932.8
9.66905 38762.3
9.68437 38633.2
9.69968 38553.9
9.715 38500.8
9.73032 38494.5
9.74563 38495.8
9.76095 38513.9
9.77627 38566.9
9.79158 38646.8
9.8069 38750.2
9.82221 38828.3
9.83753 38885.9
9.85285 38921.2
9.86816 38940.3
9.88348 38954.7
9.8988 39006
9.91411 39056.3
9.92943 39139.7
9.94475 39232.5
9.96006 39375.4
9.97538 39509.3
9.99069 39669.2
10.006 39793.9
10.0213 39952.9
10.0366 40110.6
10.052 40275.8
10.0673 40438.6
10.0826 40604
10.0979 40803.1
10.1132 41021.2
10.1285 41294.8
10.1439 41575.4
10.1592 41849.8
10.1745 42038.3
10.1898 42138.5
10.2051 42177.2
10.2204 42161.9
10.2358 42124.1
10.2511 42095.9
10.2664 42086.6
10.2817 42163.5
10.297 42289.1
10.3123 42506.9
10.3277 42700.5
10.343 42850.5
10.3583 42885.3
10.3736 42827.7
10.3889 42678.3
10.4042 42451.7
10.4196 42188.9
10.4349 41906.3
10.4502 41595.5
10.4655 41340.4
10.4808 41139.1
10.4961 41016.6
10.5115 40922.3
10.5268 40880
10.5421 40907.5
10.5574 40977.2
10.5727 41026
10.588 41046.9
10.6033 41077.6
10.6187 41090.2
10.634 41072.3
10.6493 40982.5
10.6646 40822.1
10.6799 40635.8
10.6952 40445.3
10.7106 40259.4
10.7259 40075.8
10.7412 39914.7
10.7565 39801
10.7718 39752.7
10.7871 39745.9
10.8025 39737.4
10.8178 39747.7
10.8331 39737.5
10.8484 39671.1
10.8637 39514.3
10.879 39342.3
10.8944 39116.6
10.9097 38872.7
10.925 38602.2
10.9403 38337.9
10.9556 38085.8
10.9709 37876.3
10.9863 37683.3
11.0016 37507.8
11.0169 37368.9
11.0322 37212.6
11.0475 37045.7
11.0628 36871.5
11.0782 36711
11.0935 36554.2
11.1088 36425
11.1241 36286.6
11.1394 36158.9
11.1547 36056.5
11.1701 35955.4
11.1854 35884.4
11.2007 35822.6
11.216 35754.9
11.2313 35697.7
11.2466 35625.4
11.262 35582.8
11.2773 35550.4
11.2926 35546.4
11.3079 35510
11.3232 35502.8
11.3385 35454.7
11.3538 35401.6
11.3692 35348.5
11.3845 35305.7
11.3998 35283.6
11.4151 35280.4
11.4304 35295.5
11.4457 35322.1
11.4611 35346.5
11.4764 35372.2
11.4917 35409.6
11.507 35452.5
11.5223 35504.7
11.5376 35538.2
11.553 35569.2
11.5683 35602.8
11.5836 35620.2
11.5989 35622.2
11.6142 35602.3
11.6295 35557.8
11.6449 35475.9
11.6602 35379.4
11.6755 35295.1
11.6908 35206.4
11.7061 35150.6
11.7214 35139
11.7368 35179.5
11.7521 35236.4
11.7674 35305.8
11.7827 35332.8
11.798 35343
11.8133 35321.4
11.8287 35289.2
11.844 35230.5
11.8593 35144.7
11.8746 35063.3
11.8899 35034.8
11.9052 34982.1
11.9206 34942.5
11.9359 34920.6
11.9512 34917.2
11.9665 34900
11.9818 34886.5
11.9971 34869.6
12.0125 34857.3
12.0278 34852.5
12.0431 34838.8
12.0584 34807.1
12.0737 34777.1
12.089 34726.7
12.1044 34678.4
12.1197 34617.1
12.135 34547.8
12.1503 34521.7
12.1656 34474.2
12.1809 34424.5
12.1962 34397.2
12.2116 34371.1
12.2269 34359.2
12.2422 34351.9
12.2575 34365.5
12.2728 34360.5
12.2881 34345.8
12.3035 34351
12.3188 34371.5
12.3341 34374.2
12.3494 34369.8
12.3647 34372.3
12.38 34377.2
12.3954 34365.1
12.4107 34366.1
12.426 34381.6
12.4413 34392.9
12.4566 34418.2
12.4719 34422.2
12.4873 34405.6
12.5026 34383.1
12.5179 34375.1
12.5332 34359.1
12.5485 34365.7
12.5638 34390.4
12.5792 34414.7
12.5945 34417
12.6098 34416.2
12.6251 34422
12.6404 34440.5
12.6557 34427
12.6711 34418.7
12.6864 34395.7
12.7017 34374.9
12.717 34363.3
12.7323 34332.2
12.7476 34309.1
12.763 34327.5
12.7783 34384.3
12.7936 34459
12.8089 34521.4
12.8242 34586.4
12.8395 34641.8
12.8549 34689.8
12.8702 34680.4
12.8855 34602
12.9008 34519.8
12.9161 34440.5
12.9314 34360.9
12.9467 34269.9
12.9621 34225.4
12.9774 34201.4
12.9927 34180.8
13.008 34164.1
13.0233 34168.9
13.0386 34179.2
13.054 34176.7
13.0693 34157.3
13.0846 34148.6
13.0999 34160.2
13.1152 34156.2
13.1305 34140.6
13.1459 34132.1
13.1612 34145.8
13.1765 34137.8
13.1918 34144.7
13.2071 34150.9
13.2224 34175.8
13.2378 34206.5
13.2531 34248.8
13.2684 34288
13.2837 34298.4
13.299 34317.8
13.3143 34347.8
13.3297 34375.8
13.345 34397.7
13.3603 34460.4
13.3756 34534.5
13.3909 34627.7
13.4062 34730.6
13.4216 34895.4
13.4369 35082.2
13.4522 35257.8
13.4675 35407.6
13.4828 35542
13.4981 35647.8
13.5135 35692.1
13.5288 35703.4
13.5441 35723.4
13.5594 35750.9
13.5747 35802
13.59 35825.4
13.6054 35805.5
13.6207 35714.3
13.636 35591.3
13.6513 35435.2
13.6666 35258.2
13.6819 35056.3
13.6973 34857.5
13.7126 34671.6
13.7279 34528.5
13.7432 34420.6
13.7585 34342.6
13.7738 34255.1
13.7891 34165.6
13.8045 34081.9
13.8198 34022.2
13.8351 33988.7
13.8504 33968
13.8657 33946.7
13.881 33942.2
13.8964 33929.3
13.9117 33951.8
13.927 33971.7
13.9423 33997.7
13.9576 34050.3
13.9729 34063.8
13.9883 34036.6
14.0036 33980.5
14.0189 33910.8
14.0342 33806.1
14.0495 33686.2
14.0648 33540.1
14.0802 33410.3
14.0955 33285.5
14.1108 33183.9
14.1261 33077.8
14.1414 33013.7
14.1567 32931.8
14.1721 32850.6
14.1874 32827.5
14.2027 32788.4
14.218 32742.1
14.2333 32720.9
14.2486 32681.3
14.264 32656.9
14.2793 32654.2
14.2946 32644.7
14.3099 32600.1
14.3252 32543.4
14.3405 32504.1
14.3559 32486.5
14.3712 32483.4
14.3865 32495.3
14.4018 32492.7
14.4171 32471.5
14.4324 32416.1
14.4478 32368
14.4631 32317.2
14.4784 32315.4
14.4937 32306.3
14.509 32302.3
14.5243 32327.2
14.5397 32347.7
14.555 32350.8
14.5703 32369.5
14.5856 32375.1
14.6009 32348
14.6162 32312.9
14.6315 32253.1
14.6469 32203.7
14.6622 32175.7
14.6775 32159.2
14.6928 32128.1
14.7081 32083.2
14.7234 32054
14.7388 32008.4
14.7541 31968.2
14.7694 31904.7
14.7847 31845.4
14.8 31814.3
14.8153 31767
14.8307 31732.8
14.846 31704.1
14.8613 31672
14.8766 31635.5
14.8919 31605.1
14.9072 31572.1
14.9226 31546.7
14.9379 31531
14.9532 31490.8
14.9685 31473.9
14.9838 31454.1
14.9991 31466.6
15.0145 31464.2
15.0298 31445.5
15.0451 31446.3
15.0604 31455.4
15.0757 31462
15.091 31461.5
15.1064 31456.8
15.1217 31454
15.137 31432.6
15.1523 31438.4
15.1676 31507.3
15.1829 31559
15.1983 31576.1
15.2136 31597.1
15.2289 31628.6
15.2442 31665.4
15.2595 31670.3
15.2748 31665.3
15.2902 31683.3
15.3055 31700.6
15.3208 31716
15.3361 31757.9
15.3514 31815.5
15.3667 31848.8
15.382 31852
15.3974 31848.2
15.4127 31828.1
15.428 31793.3
15.4433 31749.1
15.4586 31701.4
15.4739 31641.8
15.4893 31622
15.5046 31605.2
15.5199 31563.2
15.5352 31527.6
15.5505 31473.6
15.5658 31434
15.5812 31387.9
15.5965 31389.8
15.6118 31394.1
15.6271 31394.9
15.6424 31389.4
15.6577 31369.2
15.6731 31366.1
15.6884 31353.9
15.7037 31352.5
15.719 31338.9
15.7343 31305.1
15.7496 31232.8
15.765 31165.9
15.7803 31145.5
15.7956 31127.6
15.8109 31125.1
15.8262 31114.4
15.8415 31080.9
15.8569 31021.3
15.8722 30962.2
15.8875 30906.6
15.9028 30837.5
15.9181 30810.1
15.9334 30776.8
15.9488 30734.5
15.9641 30705.9
15.9794 30672.5
15.9947 30645.6
16.01 30602
16.0253 30597
16.0407 30582.4
16.056 30541.8
16.0713 30517
16.0866 30478.8
16.1019 30474.3
16.1172 30469.3
16.1326 30484.5
16.1479 30497.6
16.1632 30510.8
16.1785 30517.1
16.1938 30518.4
16.2091 30532.8
16.2244 30540.2
16.2398 30523.5
16.2551 30530.9
16.2704 30541.6
16.2857 30539.3
16.301 30532.2
16.3163 30516.8
16.3317 30486.6
16.347 30512.5
16.3623 30536.5
16.3776 30538.2
16.3929 30483.9
16.4082 30442.9
16.4236 30431.3
16.4389 30399.3
16.4542 30352.3
16.4695 30310.7
16.4848 30272.8
16.5001 30274.6
16.5155 30285.6
16.5308 30275.8
16.5461 30225.4
16.5614 30169
16.5767 30143.2
16.592 30101.3
16.6074 30019.5
16.6227 29968.5
16.638 29952.1
16.6533 29944.4
16.6686 29894.5
16.6839 29844.8
16.6993 29815.8
16.7146 29767.9
16.7299 29763.4
16.7452 29784.1
16.7605 29787.5
16.7758 29752.6
16.7912 29714.6
16.8065 29702
16.8218 29687.7
16.8371 29662.5
16.8524 29638.9
16.8677 29626.5
16.8831 29596
16.8984 29578.5
16.9137 29555.6
16.929 29530.8
16.9443 29555.6
16.9596 29564.9
16.9749 29554.4
16.9903 29540.8
17.0056 29510.1
17.0209 29449.7
17.0362 29421.7
17.0515 29423.9
17.0668 29401
17.0822 29413.2
17.0975 29411.1
17.1128 29361.5
17.1281 29317.9
17.1434 29295.8
17.1587 29276.3
17.1741 29259.2
17.1894 29249.1
17.2047 29249.8
17.22 29233.7
17.2353 29197.9
17.2506 29170.1
17.266 29132
17.2813 29096.2
17.2966 29088.1
17.3119 29079.6
17.3272 29036.2
17.3425 29034.3
17.3579 29042.7
17.3732 29008.2
17.3885 29013.4
17.4038 29053.7
17.4191 29065.8
17.4344 29044.8
17.4498 29035.7
17.4651 29041.9
17.4804 29024.6
17.4957 28990
17.511 28963.8
17.5263 28961.4
17.5417 28932
17.557 28908.2
17.5723 28942.9
17.5876 28946.5
17.6029 28951.3
17.6182 28973.5
17.6336 28971.9
17.6489 28970.5
17.6642 28993.3
17.6795 29013
17.6948 29036.9
17.7101 29033.6
17.7255 29028.6
17.7408 29041.6
17.7561 28998.7
17.7714 28987.1
17.7867 28985.6
17.802 28957.8
17.8173 28921.8
17.8327 28872
17.848 28863.8
17.8633 28889.8
17.8786 28909.2
17.8939 28913.9
17.9092 28943.7
17.9246 28938.8
17.9399 28911.2
17.9552 28875.2
17.9705 28883.3
17.9858 28890.4
18.0011 28866.4
18.0165 28844.4
18.0318 28823.6
18.0471 28791
18.0624 28776.9
18.0777 28764.7
18.093 28759.7
18.1084 28760.4
18.1237 28765.7
18.139 28742.3
18.1543 28743
18.1696 28771.9
18.1849 28741.1
18.2003 28744.9
18.2156 28786.4
18.2309 28769.5
18.2462 28730.5
18.2615 28736.3
18.2768 28740.5
18.2922 28728.8
18.3075 28744.1
18.3228 28780.9
18.3381 28777.2
18.3534 28804.5
18.3687 28855.5
18.3841 28901.3
18.3994 28921.1
18.4147 28928.7
18.43 28915.7
18.4453 28862.4
18.4606 28825.2
18.476 28840.6
18.4913 28818.2
18.5066 28758.8
18.5219 28722.2
18.5372 28702.2
18.5525 28704.8
18.5679 28675.2
18.5832 28637.1
18.5985 28630.3
18.6138 28615.1
18.6291 28578.4
18.6444 28523.9
18.6597 28524.1
18.6751 28520.5
18.6904 28514.4
18.7057 28495.8
18.721 28469.3
18.7363 28437.8
18.7516 28442.5
18.767 28429
18.7823 28372.6
18.7976 28296
18.8129 28279.9
18.8282 28288.5
18.8435 28291.5
18.8589 28262.4
18.8742 28226.3
18.8895 28176.6
18.9048 28144.7
18.9201 28106.6
18.9354 28113.2
18.9508 28120.5
18.9661 28057.4
18.9814 28057
18.9967 28072.4
19.012 28022.5
19.0273 27978.2
19.0427 27991.8
19.058 27981.9
19.0733 27967.8
19.0886 27947.4
19.1039 27931.7
19.1192 27887.2
19.1346 27873
19.1499 27874.7
19.1652 27888.6
19.1805 27874.4
19.1958 27908.8
19.2111 27913.6
19.2265 27914.1
19.2418 27913.1
19.2571 27862.7
19.2724 27805.8
19.2877 27795.6
19.303 27779.8
19.3184 27738.8
19.3337 27714.8
19.349 27727.9
19.3643 27703.4
19.3796 27641.5
19.3949 27594.8
19.4102 27599.1
19.4256 27598.9
19.4409 27570.4
19.4562 27559.4
19.4715 27526.7
19.4868 27500
19.5021 27456.9
19.5175 27456.4
19.5328 27471
19.5481 27458.4
19.5634 27447.2
19.5787 27430.7
19.594 27375.4
19.6094 27362.5
19.6247 27364.9
19.64 27383.5
19.6553 27400
19.6706 27379.7
19.6859 27358.6
19.7013 27320.7
19.7166 27304.1
19.7319 27314.2
19.7472 27289.4
19.7625 27273.1
19.7778 27264.2
19.7932 27257.6
19.8085 27269.3
19.8238 27278.4
19.8391 27261.7
19.8544 27220.5
19.8697 27207.2
19.8851 27201.4
19.9004 27214.4
19.9157 27174.8
19.931 27159.4
19.9463 27164.2
19.9616 27142.4
19.977 27098.7
19.9923 27129.5
20.0076 27125.1
20.0229 27105.4
20.0382 27095.2
20.0535 27049.7
20.0689 27059.5
20.0842 27072.7
20.0995 27089.5
20.1148 27078.4
20.1301 27039.6
20.1454 27021.4
20.1608 27050.1
20.1761 27061.7
20.1914 27036.6
20.2067 27024.8
20.222 27009.6
20.2373 26979.7
20.2526 26981.9
20.268 26994.9
20.2833 27011.3
20.2986 26998.8
20.3139 27019.7
20.3292 27012.8
20.3445 26963.2
20.3599 26967
20.3752 26956.1
20.3905 26923.5
20.4058 26943.8
20.4211 26983.1
20.4364 27007.1
20.4518 27012.7
20.4671 27026.9
20.4824 27027.3
20.4977 27023.7
20.513 27001.7
20.5283 26976.5
20.5437 26951.8
20.559 26948
20.5743 26897.3
20.5896 26895.2
20.6049 26918.1
20.6202 26929.9
20.6356 26906.1
20.6509 26921.8
20.6662 26948.8
20.6815 26918.7
20.6968 26912.7
20.7121 26895.8
20.7275 26871.7
20.7428 26855.9
20.7581 26838.7
20.7734 26823.9
20.7887 26802.4
20.804 26797
20.8194 26824
20.8347 26827.8
20.85 26832.7
20.8653 26828.2
20.8806 26821.5
20.8959 26826.8
20.9113 26821.8
20.9266 26819.9
20.9419 26817.5
20.9572 26788.5
20.9725 26736.4
20.9878 26709.7
21.0031 26717.7
21.0185 26774
21.0338 26773
21.0491 26783.8
21.0644 26777.2
21.0797 26745.7
21.095 26733.7
21.1104 26724.5
21.1257 26770
21.141 26778
21.1563 26741.9
21.1716 26767.3
21.1869 26772.3
21.2023 26734.2
21.2176 26673.3
21.2329 26683.6
21.2482 26675.2
21.2635 26664.6
21.2788 26675
21.2942 26695.9
21.3095 26684
21.3248 26692.2
21.3401 26703.6
21.3554 26746.9
21.3707 26723.3
21.3861 26709
21.4014 26686.4
21.4167 26695.6
21.432 26713.3
21.4473 26700.8
21.4626 26661.9
21.478 26655.7
21.4933 26651.2
21.5086 26639.4
21.5239 26646
21.5392 26673.2
21.5545 26680.7
21.5699 26662.7
21.5852 26665.6
21.6005 26661.3
21.6158 26663.3
21.6311 26665.7
21.6464 26670.1
21.6618 26664.5
21.6771 26660.8
21.6924 26658.4
21.7077 26685.4
21.723 26704.8
21.7383 26682.8
21.7537 26700.1
21.769 26706.3
21.7843 26669.6
21.7996 26648.6
21.8149 26697.3
21.8302 26696.4
21.8455 26685.6
21.8609 26639.2
21.8762 26636.5
21.8915 26680.2
21.9068 26675.2
21.9221 26649.6
21.9374 26663.1
21.9528 26681.6
21.9681 26653.7
21.9834 26702.9
21.9987 26704
22.014 26665.3
22.0293 26699.5
22.0447 26735.3
22.06 26768.2
22.0753 26763.4
22.0906 26773
22.1059 26776
22.1212 26788
22.1366 26795.7
22.1519 26840.6
22.1672 26810.5
22.1825 26770.8
22.1978 26801.2
22.2131 26810.3
22.2285 26804.3
22.2438 26809.2
22.2591 26779.3
22.2744 26769.1
22.2897 26780.7
22.305 26812
22.3204 26871.4
22.3357 26861.4
22.351 26848.5
22.3663 26879.7
22.3816 26913.9
22.3969 26894.8
22.4123 26866.3
22.4276 26870.9
22.4429 26850.4
22.4582 26812.1
22.4735 26806.8
22.4888 26825.3
22.5042 26838.6
22.5195 26851.2
22.5348 26843.2
22.5501 26892.6
22.5654 26886.5
22.5807 26816.4
22.596 26820
22.6114 26901.3
22.6267 26836.9
22.642 26823.3
22.6573 26832.8
22.6726 26844.7
22.6879 26872.9
22.7033 26898.5
22.7186 26897
22.7339 26872.4
22.7492 26852.5
22.7645 26870.5
22.7798 26887.4
22.7952 26868.8
22.8105 26891.7
22.8258 26910.7
22.8411 26907.4
22.8564 26958.8
22.8717 26944.4
22.8871 26912.7
22.9024 26918.1
22.9177 26885.5
22.933 26852.1
22.9483 26876.6
22.9636 26949.6
22.979 26959.1
22.9943 27005
