# xPDFsuite Configuration #
[PDF]
wavelength = 0.1
dataformat = QA
inputfile = B3_Bronze-3nm_ss_09.chi
backgroundfile = B3_Li-bkg_ss.chi
mode = xray
bgscale = 0.98705
composition = Ti O2
outputtype = iq
qmaxinst = 23.0
qmin = 0.1
qmax = 23.0
rmax = 30.0
rmin = 0.0
rstep = 0.01
rpoly = 0.9

[Misc]
inputdir = E:/Beamtime/PETRA-III_September-2019/BeamData/processed/Run1/B3/chi/chi_w_sigmas/chi_scaled
savedir = E:/Beamtime/PETRA-III_September-2019/BeamData/processed/Run1/B3
backgroundfilefull = E:/Beamtime/PETRA-III_September-2019/BeamData/processed/Run1/B3/chi/chi_w_sigmas/chi_scaled/B3_Li-bkg_ss.chi

#### start data
#S 1
#L Q($\AA^{-1}$)  intensity(a.u.)
0.111649 0
0.126965 0
0.142282 0
0.157598 0
0.172914 0
0.188231 0
0.203547 0
0.218864 0
0.23418 0
0.249496 0
0.264813 0
0.280129 0
0.295445 0
0.310762 0
0.326078 0
0.341394 0
0.356711 0
0.372027 0
0.387343 0
0.40266 0
0.417976 0
0.433292 0
0.448609 0
0.463925 0
0.479241 0
0.494558 0
0.509874 0
0.525191 0
0.540507 0
0.555823 0
0.57114 0
0.586456 0
0.601772 0
0.617089 0
0.632405 0
0.647721 0
0.663038 0
0.678354 0
0.69367 0
0.708987 0
0.724303 0
0.739619 0
0.754936 0
0.770252 0
0.785568 0
0.800885 0
0.816201 0
0.831518 0
0.846834 0
0.86215 1.29327
0.877467 92851.8
0.892783 93008.8
0.908099 93182.8
0.923416 94238
0.938732 95785.6
0.954048 97410.8
0.969365 98772.2
0.984681 99497
0.999997 99249
1.01531 98033.9
1.03063 95225.5
1.04595 91338.4
1.06126 86191.7
1.07658 79864.3
1.0919 73428.8
1.10721 65991
1.12253 59050.7
1.13784 51744.8
1.15316 44902.9
1.16848 38742.7
1.18379 32829.9
1.19911 27930.6
1.21443 23361.2
1.22974 19463.8
1.24506 16248.5
1.26038 13604.1
1.27569 11663
1.29101 10127
1.30632 9164.45
1.32164 8871.22
1.33696 8962.77
1.35227 9452.33
1.36759 10311.7
1.38291 11417.8
1.39822 12804.9
1.41354 14106
1.42886 15323
1.44417 16532.1
1.45949 17629.1
1.4748 18864.3
1.49012 20194.6
1.50544 22091.7
1.52075 24678.1
1.53607 28382.8
1.55139 33367.2
1.5667 39405
1.58202 47748.4
1.59733 57146
1.61265 68404
1.62797 80966.7
1.64328 93829.9
1.6586 107803
1.67392 120814
1.68923 133381
1.70455 144442
1.71987 153596
1.73518 161125
1.7505 166588
1.76581 170799
1.78113 173102
1.79645 173804
1.81176 172838
1.82708 170477
1.8424 166576
1.85771 162310
1.87303 157302
1.88835 152399
1.90366 147636
1.91898 143195
1.93429 139590
1.94961 136806
1.96493 135016
1.98024 134007
1.99556 133418
2.01088 132944
2.02619 131790
2.04151 129871
2.05683 126659
2.07214 122632
2.08746 117817
2.10277 112316
2.11809 106718
2.13341 100817
2.14872 95237.8
2.16404 89969.2
2.17936 85261.8
2.19467 81365.3
2.20999 78030.8
2.22531 75521.1
2.24062 73470.9
2.25594 71882.5
2.27125 70528.2
2.28657 69236.9
2.30189 68040.9
2.3172 66636.7
2.33252 65181.4
2.34784 63465.4
2.36315 61810.7
2.37847 60201.7
2.39379 58477.3
2.4091 57132.7
2.42442 55766.3
2.43973 54943.3
2.45505 54353.4
2.47037 53943.8
2.48568 53867.9
2.501 53922
2.51632 54108.1
2.53163 54422.9
2.54695 54654.7
2.56226 54983.7
2.57758 55469.2
2.5929 55988.7
2.60821 56542
2.62353 56774.4
2.63885 56763.5
2.65416 56725.8
2.66948 56733.9
2.6848 56763.4
2.70011 56861.7
2.71543 57188.2
2.73074 57558
2.74606 58134.9
2.76138 58817.4
2.77669 59758.5
2.79201 60974.6
2.80733 62549.4
2.82264 64858.7
2.83796 67908.9
2.85328 71857.8
2.86859 76989.1
2.88391 82958.1
2.89922 90352.1
2.91454 98498.8
2.92986 107415
2.94517 116717
2.96049 125799
2.97581 134647
2.99112 142217
3.00644 148441
3.02176 152779
3.03707 154994
3.05239 155199
3.0677 153554
3.08302 150238
3.09834 145676
3.11365 140381
3.12897 134841
3.14429 129496
3.1596 124657
3.17492 120775
3.19024 117559
3.20555 115282
3.22087 113611
3.23618 112264
3.2515 110997
3.26682 109482
3.28213 107598
3.29745 105068
3.31277 102114
3.32808 98710.1
3.3434 95016
3.35872 91417
3.37403 87713.8
3.38935 84475.9
3.40466 81499.2
3.41998 78989.1
3.4353 76862.3
3.45061 75117.5
3.46593 73867.8
3.48125 72893.4
3.49656 72240.5
3.51188 71862.1
3.52719 71845.9
3.54251 72143.5
3.55783 72634.4
3.57314 73300.6
3.58846 74018.7
3.60378 74765.2
3.61909 75497.2
3.63441 76069.9
3.64973 76595.9
3.66504 76883.2
3.68036 77112.5
3.69567 77192.7
3.71099 77328.2
3.72631 77595.7
3.74162 77948.8
3.75694 78617.6
3.77226 79455.5
3.78757 80531.8
3.80289 81865.9
3.81821 83422.5
3.83352 85068
3.84884 86770.8
3.86415 88324.1
3.87947 89596.7
3.89479 90441.8
3.9101 90741.1
3.92542 90528.9
3.94074 89895.2
3.95605 88847
3.97137 87605.1
3.98669 86061.9
4.002 84599.8
4.01732 83223.6
4.03263 82073.6
4.04795 81270.9
4.06327 80840
4.07858 80785.9
4.0939 81030.9
4.10922 81510
4.12453 82106.3
4.13985 82712.6
4.15517 83143.3
4.17048 83275.2
4.1858 83131.5
4.20111 82695.9
4.21643 82095.6
4.23175 81267.4
4.24706 80274.9
4.26238 79184.5
4.2777 78126.9
4.29301 77190.5
4.30833 76383.1
4.32365 75832.4
4.33896 75498.9
4.35428 75467.9
4.36959 75543
4.38491 75929.2
4.40023 76370
4.41554 76866.9
4.43086 77273.4
4.44618 77427.9
4.46149 77323
4.47681 76808.6
4.49213 75936.2
4.50744 74651.1
4.52276 73051.1
4.53807 71141
4.55339 69094
4.56871 66913
4.58402 64770.1
4.59934 62622.6
4.61466 60675.7
4.62997 58942.1
4.64529 57402.4
4.6606 56131.6
4.67592 55087.8
4.69124 54314.5
4.70655 53746.2
4.72187 53402.9
4.73719 53305.3
4.7525 53454.3
4.76782 53821.1
4.78314 54468.1
4.79845 55317.5
4.81377 56385.2
4.82908 57626
4.8444 59014.2
4.85972 60508.2
4.87503 62036.3
4.89035 63569.9
4.90567 65046.5
4.92098 66505
4.9363 67943.3
4.95162 69418.8
4.96693 70939.6
4.98225 72655.1
4.99756 74739.1
5.01288 76989.7
5.0282 79259.8
5.04351 81574.4
5.05883 83439.3
5.07415 84850
5.08946 85623.1
5.10478 85621.4
5.1201 85097.2
5.13541 83880.1
5.15073 82356.8
5.16604 80536.2
5.18136 78662.9
5.19668 77007.7
5.21199 75607.5
5.22731 74507.6
5.24263 73684.4
5.25794 73015.1
5.27326 72547.3
5.28858 72243.1
5.30389 72174.7
5.31921 72409.2
5.33452 72918.5
5.34984 73700.7
5.36516 74446.9
5.38047 75040.1
5.39579 75167.9
5.41111 74768.6
5.42642 73702.6
5.44174 72106.7
5.45706 69849.6
5.47237 67150.4
5.48769 64110.6
5.503 61036.4
5.51832 58209.8
5.53364 55605.6
5.54895 53546.2
5.56427 51894.9
5.57959 50601.8
5.5949 49634.1
5.61022 48846.6
5.62553 48262
5.64085 47700.5
5.65617 47286.4
5.67148 46941.9
5.6868 46736.7
5.70212 46563.9
5.71743 46483
5.73275 46538.2
5.74807 46682.5
5.76338 46900.9
5.7787 47267.8
5.79401 47779
5.80933 48436.3
5.82465 49143.5
5.83996 49919.1
5.85528 50668.8
5.8706 51437.3
5.88591 52163.8
5.90123 52873.9
5.91655 53493.9
5.93186 54066.5
5.94718 54528
5.96249 54857
5.97781 55091.7
5.99313 55172.5
6.00844 55179.8
6.02376 55024.3
6.03908 54819.5
6.05439 54561.4
6.06971 54303.6
6.08503 54062.9
6.10034 53827.2
6.11566 53642.4
6.13097 53479.5
6.14629 53364.9
6.16161 53297.2
6.17692 53283.6
6.19224 53351.7
6.20756 53420
6.22287 53609.4
6.23819 53817.8
6.25351 54079.7
6.26882 54294.4
6.28414 54405.4
6.29945 54352.9
6.31477 54118.2
6.33009 53763.9
6.3454 53249.2
6.36072 52638.6
6.37604 51937
6.39135 51242.1
6.40667 50592.9
6.42199 50046
6.4373 49583.8
6.45262 49188.5
6.46793 48911.6
6.48325 48733.5
6.49857 48629.6
6.51388 48573.4
6.5292 48569.6
6.54452 48567.3
6.55983 48580.4
6.57515 48658.7
6.59046 48762.4
6.60578 48943.7
6.6211 49166.8
6.63641 49442.5
6.65173 49712.8
6.66705 50015.8
6.68236 50388.7
6.69768 50815.2
6.713 51293.3
6.72831 51773.6
6.74363 52250.1
6.75894 52725.8
6.77426 53189.3
6.78958 53683.7
6.80489 54133.5
6.82021 54526.5
6.83553 54843.2
6.85084 55060.3
6.86616 55184.3
6.88148 55222.2
6.89679 55177.8
6.91211 55018.3
6.92742 54806.2
6.94274 54542.4
6.95806 54220.6
6.97337 53853.3
6.98869 53463.9
7.00401 53079.4
7.01932 52717.4
7.03464 52335.4
7.04996 51966.2
7.06527 51654.6
7.08059 51373.5
7.0959 51105.3
7.11122 50812.4
7.12654 50527.4
7.14185 50274.1
7.15717 50073.1
7.17249 49857.4
7.1878 49641.1
7.20312 49457.1
7.21844 49315.3
7.23375 49183.5
7.24907 49045.4
7.26438 48907.1
7.2797 48769.3
7.29502 48629.1
7.31033 48467.2
7.32565 48296.2
7.34097 48152.4
7.35628 48017.8
7.3716 47888.9
7.38692 47773.6
7.40223 47682.8
7.41755 47656.4
7.43286 47670.1
7.44818 47717.8
7.4635 47782.3
7.47881 47840.5
7.49413 47914.8
7.50945 47994.1
7.52476 48066.5
7.54008 48080.6
7.55539 48013.7
7.57071 47897.7
7.58603 47694.8
7.60134 47465.6
7.61666 47179.1
7.63198 46898.1
7.64729 46607.2
7.66261 46332.2
7.67793 46131.8
7.69324 46040.3
7.70856 46030.4
7.72387 46136.2
7.73919 46339.6
7.75451 46637.3
7.76982 46945.9
7.78514 47250.6
7.80046 47526.8
7.81577 47718.7
7.83109 47772.3
7.84641 47661.9
7.86172 47404
7.87704 47023.8
7.89235 46579.2
7.90767 46084.3
7.92299 45598.1
7.9383 45140.8
7.95362 44737.6
7.96894 44347.8
7.98425 44004.4
7.99957 43669.6
8.01489 43376.3
8.0302 43116.7
8.04552 42881.1
8.06083 42671.3
8.07615 42487.5
8.09147 42388.8
8.10678 42336.5
8.1221 42325.8
8.13742 42363
8.15273 42462.7
8.16805 42603.5
8.18337 42771
8.19868 42993.5
8.214 43230.4
8.22931 43464.8
8.24463 43687.7
8.25995 43831.3
8.27526 43942.7
8.29058 43973.1
8.3059 43994.9
8.32121 43941.9
8.33653 43861.3
8.35185 43738.2
8.36716 43567.5
8.38248 43394.1
8.39779 43242.1
8.41311 43104.8
8.42843 42989.1
8.44374 42878.5
8.45906 42769.1
8.47438 42650.2
8.48969 42523.5
8.50501 42418.3
8.52032 42307.8
8.53564 42204.8
8.55096 42114.6
8.56627 42022.9
8.58159 41941.3
8.59691 41895.8
8.61222 41880.6
8.62754 41880.2
8.64286 41914.1
8.65817 42009.6
8.67349 42133.6
8.6888 42280.2
8.70412 42503.5
8.71944 42850
8.73475 43309.6
8.75007 43869.5
8.76539 44509.2
8.7807 45228.1
8.79602 45890.4
8.81134 46477.5
8.82665 46929.7
8.84197 47261.7
8.85728 47424.1
8.8726 47472.7
8.88792 47417.8
8.90323 47360.4
8.91855 47360.7
8.93387 47429.6
8.94918 47585
8.9645 47739.9
8.97982 47909.8
8.99513 47961.9
9.01045 47922.3
9.02576 47685.5
9.04108 47293.7
9.0564 46728.3
9.07171 46059.1
9.08703 45337.2
9.10235 44623.7
9.11766 43915.2
9.13298 43278.7
9.1483 42714.5
9.16361 42258.1
9.17893 41862
9.19424 41507.1
9.20956 41205.8
9.22488 40930.5
9.24019 40670.2
9.25551 40444.2
9.27083 40252.1
9.28614 40070.7
9.30146 39929.2
9.31678 39796.9
9.33209 39713.5
9.34741 39656
9.36272 39638.4
9.37804 39615
9.39336 39623.1
9.40867 39637.2
9.42399 39633.9
9.43931 39686.5
9.45462 39750.1
9.46994 39860
9.48525 39967.8
9.50057 40106
9.51589 40248.5
9.5312 40398.3
9.54652 40512.9
9.56184 40566.3
9.57715 40520.9
9.59247 40379.8
9.60779 40170
9.6231 39911.9
9.63842 39649.6
9.65373 39379.4
9.66905 39146.6
9.68437 38951.8
9.69968 38825.2
9.715 38754.4
9.73032 38719.8
9.74563 38704.7
9.76095 38707.8
9.77627 38749.4
9.79158 38816.3
9.8069 38922.4
9.82221 39014.1
9.83753 39086.3
9.85285 39150.2
9.86816 39206
9.88348 39270.8
9.8988 39355.1
9.91411 39455
9.92943 39584.1
9.94475 39717.1
9.96006 39890.6
9.97538 40069.3
9.99069 40270.7
10.006 40469.7
10.0213 40663.7
10.0366 40853.1
10.052 41052.8
10.0673 41245.6
10.0826 41436.8
10.0979 41659.2
10.1132 41884.1
10.1285 42175.9
10.1439 42462.5
10.1592 42759.6
10.1745 42977.4
10.1898 43115.8
10.2051 43171.6
10.2204 43182.2
10.2358 43172.9
10.2511 43176.1
10.2664 43211.2
10.2817 43311.2
10.297 43472.8
10.3123 43710.8
10.3277 43932.9
10.343 44093.7
10.3583 44167
10.3736 44139.7
10.3889 44035.3
10.4042 43830
10.4196 43569.7
10.4349 43282.8
10.4502 42986.6
10.4655 42741.4
10.4808 42560.7
10.4961 42445.9
10.5115 42353.3
10.5268 42318.1
10.5421 42343.2
10.5574 42394.4
10.5727 42459
10.588 42513.9
10.6033 42569.1
10.6187 42592.5
10.634 42571.3
10.6493 42490.6
10.6646 42350.7
10.6799 42161.1
10.6952 41978.2
10.7106 41815.1
10.7259 41663.9
10.7412 41557.4
10.7565 41492.8
10.7718 41482.9
10.7871 41491.5
10.8025 41507.9
10.8178 41537.8
10.8331 41540.1
10.8484 41493.9
10.8637 41364.1
10.879 41195.9
10.8944 40978.6
10.9097 40711.3
10.925 40408.8
10.9403 40100
10.9556 39817.9
10.9709 39584.7
10.9863 39396.2
11.0016 39201.8
11.0169 38992
11.0322 38792.8
11.0475 38611.7
11.0628 38420.8
11.0782 38230.6
11.0935 38040.7
11.1088 37861.5
11.1241 37675.1
11.1394 37499.6
11.1547 37328.3
11.1701 37168.3
11.1854 37059.7
11.2007 36961.5
11.216 36829.3
11.2313 36724.5
11.2466 36619.5
11.262 36517.1
11.2773 36431.7
11.2926 36381.7
11.3079 36335.5
11.3232 36287.3
11.3385 36229.4
11.3538 36172.3
11.3692 36128.5
11.3845 36100.7
11.3998 36098
11.4151 36076.7
11.4304 36066
11.4457 36063.9
11.4611 36075.9
11.4764 36100.2
11.4917 36143.1
11.507 36172
11.5223 36228.9
11.5376 36271.3
11.553 36314.1
11.5683 36350.1
11.5836 36374
11.5989 36371.9
11.6142 36359.6
11.6295 36335.4
11.6449 36295.9
11.6602 36249.2
11.6755 36204.2
11.6908 36147.3
11.7061 36098.4
11.7214 36066.1
11.7368 36087.5
11.7521 36117.9
11.7674 36184.8
11.7827 36229.5
11.798 36276.5
11.8133 36265.5
11.8287 36253.2
11.844 36230.5
11.8593 36187.7
11.8746 36144.9
11.8899 36131.3
11.9052 36119.3
11.9206 36092.9
11.9359 36081.2
11.9512 36100.1
11.9665 36133.9
11.9818 36154.2
11.9971 36173.3
12.0125 36183.6
12.0278 36159.4
12.0431 36127.4
12.0584 36098.1
12.0737 36098.4
12.089 36089.9
12.1044 36086.6
12.1197 36029.2
12.135 35985.2
12.1503 35966.7
12.1656 35930.2
12.1809 35892.3
12.1962 35869.8
12.2116 35854.5
12.2269 35830.7
12.2422 35811.9
12.2575 35793.9
12.2728 35760.9
12.2881 35744.7
12.3035 35740.5
12.3188 35719.8
12.3341 35668.7
12.3494 35641.7
12.3647 35630
12.38 35620.8
12.3954 35598.5
12.4107 35566.8
12.426 35558.7
12.4413 35531.3
12.4566 35512.9
12.4719 35482.2
12.4873 35454.7
12.5026 35414.7
12.5179 35385.5
12.5332 35341.1
12.5485 35294.1
12.5638 35276.9
12.5792 35297.6
12.5945 35310.3
12.6098 35305.5
12.6251 35302.1
12.6404 35307.4
12.6557 35303.3
12.6711 35328.5
12.6864 35340.7
12.7017 35329
12.717 35313.8
12.7323 35312.7
12.7476 35313.1
12.763 35354.6
12.7783 35415.6
12.7936 35500.5
12.8089 35587.8
12.8242 35671.4
12.8395 35747.9
12.8549 35784.3
12.8702 35742.9
12.8855 35653.8
12.9008 35570.7
12.9161 35483.3
12.9314 35407.3
12.9467 35315
12.9621 35265.5
12.9774 35226.3
12.9927 35195.8
13.008 35188.6
13.0233 35169.1
13.0386 35167.1
13.054 35193.6
13.0693 35193
13.0846 35153
13.0999 35145.1
13.1152 35129.2
13.1305 35107.5
13.1459 35081.2
13.1612 35074.3
13.1765 35067.3
13.1918 35067.1
13.2071 35073.6
13.2224 35093.4
13.2378 35101.3
13.2531 35116.8
13.2684 35161.6
13.2837 35175
13.299 35216.3
13.3143 35256.1
13.3297 35290.6
13.345 35313.7
13.3603 35356.2
13.3756 35456.1
13.3909 35597.2
13.4062 35769.9
13.4216 35952.9
13.4369 36161.2
13.4522 36352
13.4675 36508.5
13.4828 36630.5
13.4981 36764.8
13.5135 36851.4
13.5288 36892.2
13.5441 36925.9
13.5594 36969.5
13.5747 37023.8
13.59 37046.3
13.6054 37026.2
13.6207 36964.5
13.636 36862.3
13.6513 36704.5
13.6666 36503.3
13.6819 36313.9
13.6973 36118.6
13.7126 35938.8
13.7279 35792.9
13.7432 35696.1
13.7585 35619.5
13.7738 35556.8
13.7891 35483.8
13.8045 35401.5
13.8198 35335.4
13.8351 35279.9
13.8504 35255.8
13.8657 35227.2
13.881 35219
13.8964 35228.3
13.9117 35268.2
13.927 35291.2
13.9423 35320.9
13.9576 35349.5
13.9729 35331.7
13.9883 35283.2
14.0036 35206.1
14.0189 35135.9
14.0342 35012.3
14.0495 34873.7
14.0648 34728
14.0802 34591.5
14.0955 34460.7
14.1108 34344.3
14.1261 34241.8
14.1414 34154.8
14.1567 34071.3
14.1721 33995.7
14.1874 33946.1
14.2027 33895.4
14.218 33844.2
14.2333 33811.4
14.2486 33786.4
14.264 33765.2
14.2793 33752.3
14.2946 33705.5
14.3099 33681.6
14.3252 33666.5
14.3405 33656.9
14.3559 33637.6
14.3712 33611.7
14.3865 33591.7
14.4018 33566
14.4171 33559.2
14.4324 33556.8
14.4478 33545.7
14.4631 33506
14.4784 33490.4
14.4937 33509.2
14.509 33536.6
14.5243 33561.3
14.5397 33574
14.555 33580.8
14.5703 33583.9
14.5856 33580.9
14.6009 33576.3
14.6162 33545.5
14.6315 33475.4
14.6469 33413.4
14.6622 33392.8
14.6775 33366
14.6928 33343.1
14.7081 33294.3
14.7234 33232.5
14.7388 33182.2
14.7541 33129.8
14.7694 33078.7
14.7847 33018.8
14.8 32973
14.8153 32937.4
14.8307 32886.3
14.846 32838.2
14.8613 32815.7
14.8766 32767.4
14.8919 32718.8
14.9072 32681.9
14.9226 32658.1
14.9379 32620.6
14.9532 32570
14.9685 32562.8
14.9838 32554.2
14.9991 32567.2
15.0145 32573.9
15.0298 32572.9
15.0451 32566.5
15.0604 32563.4
15.0757 32610.8
15.091 32601.6
15.1064 32572.6
15.1217 32565.3
15.137 32560
15.1523 32564.1
15.1676 32584.4
15.1829 32593.3
15.1983 32608.1
15.2136 32616.2
15.2289 32628
15.2442 32671.1
15.2595 32707.8
15.2748 32729.4
15.2902 32753
15.3055 32773.3
15.3208 32804.7
15.3361 32851.4
15.3514 32896.1
15.3667 32934
15.382 32945.1
15.3974 32958.3
15.4127 32975.8
15.428 32939.6
15.4433 32900.4
15.4586 32871.5
15.4739 32816.6
15.4893 32754.5
15.5046 32706.2
15.5199 32677.3
15.5352 32659
15.5505 32625.9
15.5658 32614.5
15.5812 32620.5
15.5965 32634.5
15.6118 32600.1
15.6271 32560
15.6424 32532.9
15.6577 32508.2
15.6731 32496.5
15.6884 32465
15.7037 32444
15.719 32424.6
15.7343 32406.8
15.7496 32397.2
15.765 32351.5
15.7803 32317
15.7956 32294.2
15.8109 32287
15.8262 32294
15.8415 32233.5
15.8569 32160
15.8722 32101.8
15.8875 32028.3
15.9028 31967.3
15.9181 31941.1
15.9334 31889.2
15.9488 31838.8
15.9641 31797.5
15.9794 31789.8
15.9947 31758.5
16.01 31696.5
16.0253 31662.7
16.0407 31639.8
16.056 31607.9
16.0713 31603.1
16.0866 31593.3
16.1019 31600.3
16.1172 31605.6
16.1326 31621.1
16.1479 31635.3
16.1632 31627.7
16.1785 31610.4
16.1938 31605.2
16.2091 31605.8
16.2244 31589.7
16.2398 31563
16.2551 31552.9
16.2704 31570.2
16.2857 31588.3
16.301 31582.2
16.3163 31556
16.3317 31518.5
16.347 31516.8
16.3623 31518
16.3776 31503.4
16.3929 31466.4
16.4082 31446.5
16.4236 31446.3
16.4389 31423.9
16.4542 31398.4
16.4695 31373.1
16.4848 31340.3
16.5001 31329.9
16.5155 31335.2
16.5308 31301.9
16.5461 31254.4
16.5614 31225.8
16.5767 31214.1
16.592 31193.4
16.6074 31136
16.6227 31098.1
16.638 31079.4
16.6533 31073.5
16.6686 31062
16.6839 31031.5
16.6993 31000.2
16.7146 30965.1
16.7299 30950.7
16.7452 30962.6
16.7605 30947.2
16.7758 30915
16.7912 30874
16.8065 30836.5
16.8218 30810.2
16.8371 30798.5
16.8524 30784.4
16.8677 30804.1
16.8831 30802.2
16.8984 30780.8
16.9137 30737.2
16.929 30705.9
16.9443 30707
16.9596 30710.3
16.9749 30698.8
16.9903 30695.3
17.0056 30667.9
17.0209 30604.4
17.0362 30573.8
17.0515 30563.6
17.0668 30535.2
17.0822 30554.3
17.0975 30545.5
17.1128 30488
17.1281 30448.7
17.1434 30413.1
17.1587 30413.5
17.1741 30427.6
17.1894 30405.8
17.2047 30383.6
17.22 30357.7
17.2353 30334.1
17.2506 30336.3
17.266 30319.7
17.2813 30278.6
17.2966 30286.2
17.3119 30299.5
17.3272 30288.2
17.3425 30260
17.3579 30226.1
17.3732 30202.8
17.3885 30248.2
17.4038 30288.4
17.4191 30283.5
17.4344 30259.2
17.4498 30231.3
17.4651 30230
17.4804 30252.7
17.4957 30233.2
17.511 30181.6
17.5263 30177.3
17.5417 30191.2
17.557 30193.7
17.5723 30208.2
17.5876 30207.9
17.6029 30205.9
17.6182 30185.7
17.6336 30176.1
17.6489 30183.2
17.6642 30200
17.6795 30205.9
17.6948 30230.4
17.7101 30215
17.7255 30204.5
17.7408 30213.7
17.7561 30199.3
17.7714 30174
17.7867 30154.2
17.802 30131.9
17.8173 30113.5
17.8327 30073.2
17.848 30035.4
17.8633 30051.2
17.8786 30060.2
17.8939 30052.7
17.9092 30089.4
17.9246 30118.3
17.9399 30114
17.9552 30054.3
17.9705 30021.8
17.9858 30015.9
18.0011 30010.2
18.0165 30001.3
18.0318 30002.3
18.0471 29970.5
18.0624 29925.1
18.0777 29888.8
18.093 29876
18.1084 29872.4
18.1237 29881.4
18.139 29862.1
18.1543 29841.6
18.1696 29854.2
18.1849 29841.5
18.2003 29809.5
18.2156 29828.1
18.2309 29860.1
18.2462 29851.1
18.2615 29857
18.2768 29882.7
18.2922 29880.1
18.3075 29915.7
18.3228 29952.9
18.3381 29924.9
18.3534 29937
18.3687 29970.3
18.3841 29969.9
18.3994 29998.1
18.4147 30009.9
18.43 29995.5
18.4453 29968.3
18.4606 29935.6
18.476 29930.5
18.4913 29918.1
18.5066 29890.7
18.5219 29877.2
18.5372 29826.4
18.5525 29788.9
18.5679 29773.4
18.5832 29751.9
18.5985 29759.7
18.6138 29771.4
18.6291 29742.8
18.6444 29685
18.6597 29646.4
18.6751 29637.5
18.6904 29650.2
18.7057 29644.6
18.721 29627.8
18.7363 29585.1
18.7516 29606.5
18.767 29610.1
18.7823 29561.4
18.7976 29478.2
18.8129 29446
18.8282 29475.1
18.8435 29451.7
18.8589 29414.4
18.8742 29396.7
18.8895 29375.1
18.9048 29354.8
18.9201 29317.9
18.9354 29298.8
18.9508 29285.8
18.9661 29246.3
18.9814 29203.4
18.9967 29168.2
19.012 29115.2
19.0273 29106.1
19.0427 29124.2
19.058 29120.3
19.0733 29089.7
19.0886 29035.6
19.1039 29026.8
19.1192 29022.1
19.1346 29044.6
19.1499 29047.4
19.1652 29051.3
19.1805 29057.9
19.1958 29066.8
19.2111 29037.4
19.2265 29021.4
19.2418 29019.5
19.2571 28982.8
19.2724 28955.8
19.2877 28937.4
19.303 28931.9
19.3184 28888
19.3337 28860.6
19.349 28841.3
19.3643 28804.1
19.3796 28806.9
19.3949 28809.5
19.4102 28787.9
19.4256 28780.5
19.4409 28759.6
19.4562 28714.2
19.4715 28694.5
19.4868 28696.2
19.5021 28689.9
19.5175 28687.4
19.5328 28686.1
19.5481 28667.3
19.5634 28621.9
19.5787 28601.3
19.594 28577.5
19.6094 28573.9
19.6247 28547.9
19.64 28505.8
19.6553 28551.3
19.6706 28526.1
19.6859 28482
19.7013 28477.5
19.7166 28448.4
19.7319 28442.5
19.7472 28436.5
19.7625 28431.8
19.7778 28422.9
19.7932 28434.6
19.8085 28384.7
19.8238 28378.4
19.8391 28374.3
19.8544 28356
19.8697 28356.6
19.8851 28378.6
19.9004 28353.4
19.9157 28289.3
19.931 28282.1
19.9463 28324.7
19.9616 28393.5
19.977 28383.6
19.9923 28330.7
20.0076 28322.1
20.0229 28304.4
20.0382 28299.6
20.0535 28265
20.0689 28243.2
20.0842 28252.9
20.0995 28222.7
20.1148 28194.5
20.1301 28226.2
20.1454 28254.4
20.1608 28235.3
20.1761 28240.6
20.1914 28204.9
20.2067 28128.3
20.222 28096.6
20.2373 28135.6
20.2526 28180.5
20.268 28176.5
20.2833 28171
20.2986 28176.5
20.3139 28203.1
20.3292 28197.1
20.3445 28172.3
20.3599 28192.4
20.3752 28151
20.3905 28108
20.4058 28135.5
20.4211 28158.4
20.4364 28167.6
20.4518 28156.5
20.4671 28127.2
20.4824 28148
20.4977 28143.7
20.513 28143.2
20.5283 28170.7
20.5437 28154.6
20.559 28130.5
20.5743 28103.9
20.5896 28109.5
20.6049 28130.8
20.6202 28094.2
20.6356 28065
20.6509 28095.5
20.6662 28118.4
20.6815 28124.2
20.6968 28097.4
20.7121 28055.9
20.7275 28014.5
20.7428 28012.9
20.7581 27991
20.7734 27973
20.7887 27971.5
20.804 27957.9
20.8194 27958.2
20.8347 27971.8
20.85 28007.2
20.8653 28039.1
20.8806 28035.5
20.8959 27984.5
20.9113 27931.6
20.9266 27932.7
20.9419 27949.9
20.9572 27945.7
20.9725 27949.1
20.9878 27917
21.0031 27895.5
21.0185 27977.1
21.0338 27986.7
21.0491 27951.2
21.0644 27938.3
21.0797 27933.9
21.095 27978.3
21.1104 27981.3
21.1257 27947.8
21.141 27936.6
21.1563 27910.8
21.1716 27927
21.1869 27944.7
21.2023 27955
21.2176 27891.6
21.2329 27875.9
21.2482 27900.8
21.2635 27875.2
21.2788 27868.1
21.2942 27899.9
21.3095 27866.7
21.3248 27881.3
21.3401 27930.4
21.3554 27916.7
21.3707 27857.7
21.3861 27903.3
21.4014 27901.4
21.4167 27878.7
21.432 27902.6
21.4473 27911.9
21.4626 27863.4
21.478 27857.4
21.4933 27891
21.5086 27883.2
21.5239 27881.1
21.5392 27897
21.5545 27877.1
21.5699 27877.5
21.5852 27894.8
21.6005 27876.6
21.6158 27824.6
21.6311 27819.5
21.6464 27860
21.6618 27850.8
21.6771 27831.7
21.6924 27851.8
21.7077 27861.4
21.723 27860
21.7383 27837.8
21.7537 27843.5
21.769 27852.9
21.7843 27857.4
21.7996 27836.4
21.8149 27847.3
21.8302 27826.9
21.8455 27822.4
21.8609 27837.5
21.8762 27848.1
21.8915 27872.1
21.9068 27888.9
21.9221 27913
21.9374 27916
21.9528 27913.1
21.9681 27905.9
21.9834 27932.4
21.9987 27889.4
22.014 27880.9
22.0293 27902
22.0447 27950.9
22.06 27995.4
22.0753 28007.1
22.0906 27993.9
22.1059 28000.7
22.1212 28010.9
22.1366 28010.3
22.1519 28042.6
22.1672 28045.6
22.1825 28032.2
22.1978 28061.4
22.2131 28029.8
22.2285 27980.4
22.2438 27996.8
22.2591 28012.1
22.2744 28006.5
22.2897 28013.8
22.305 28021.9
22.3204 28022.9
22.3357 28016.1
22.351 28014.5
22.3663 28032.6
22.3816 28094.7
22.3969 28108.6
22.4123 28063.7
22.4276 28064.1
22.4429 28062.6
22.4582 28094.3
22.4735 28114.2
22.4888 28094.2
22.5042 28068.7
22.5195 28097.2
22.5348 28091.5
22.5501 28108.2
22.5654 28105.5
22.5807 28109.7
22.596 28173.3
22.6114 28210.8
22.6267 28164.2
22.642 28131.8
22.6573 28143.7
22.6726 28140.6
22.6879 28156.8
22.7033 28129.3
22.7186 28105.1
22.7339 28082.3
22.7492 28092.1
22.7645 28100.6
22.7798 28124.1
22.7952 28160.5
22.8105 28149.3
22.8258 28120
22.8411 28099.9
22.8564 28152.1
22.8717 28197.3
22.8871 28149.5
22.9024 28168.7
22.9177 28169.4
22.933 28162.1
22.9483 28177.4
22.9636 28249.4
22.979 28241.5
22.9943 28209.8
