# xPDFsuite Configuration #
[PDF]
wavelength = 0.1
dataformat = QA
inputfile = B3_Bronze-3nm_ss_14.chi
backgroundfile = B3_Li-bkg_ss.chi
mode = xray
bgscale = 0.98705
composition = Ti O2
outputtype = iq
qmaxinst = 23.0
qmin = 0.1
qmax = 23.0
rmax = 30.0
rmin = 0.0
rstep = 0.01
rpoly = 0.9

[Misc]
inputdir = E:/Beamtime/PETRA-III_September-2019/BeamData/processed/Run1/B3/chi/chi_w_sigmas/chi_scaled
savedir = E:/Beamtime/PETRA-III_September-2019/BeamData/processed/Run1/B3
backgroundfilefull = E:/Beamtime/PETRA-III_September-2019/BeamData/processed/Run1/B3/chi/chi_w_sigmas/chi_scaled/B3_Li-bkg_ss.chi

#### start data
#S 1
#L Q($\AA^{-1}$)  intensity(a.u.)
0.111649 0
0.126965 0
0.142282 0
0.157598 0
0.172914 0
0.188231 0
0.203547 0
0.218864 0
0.23418 0
0.249496 0
0.264813 0
0.280129 0
0.295445 0
0.310762 0
0.326078 0
0.341394 0
0.356711 0
0.372027 0
0.387343 0
0.40266 0
0.417976 0
0.433292 0
0.448609 0
0.463925 0
0.479241 0
0.494558 0
0.509874 0
0.525191 0
0.540507 0
0.555823 0
0.57114 0
0.586456 0
0.601772 0
0.617089 0
0.632405 0
0.647721 0
0.663038 0
0.678354 0
0.69367 0
0.708987 0
0.724303 0
0.739619 0
0.754936 0
0.770252 0
0.785568 0
0.800885 0
0.816201 0
0.831518 0
0.846834 0
0.86215 1.42899
0.877467 102596
0.892783 103466
0.908099 104451
0.923416 106307
0.938732 108938
0.954048 111406
0.969365 113103
0.984681 113662
0.999997 112534
1.01531 110063
1.03063 105353
1.04595 99461.4
1.06126 92223.3
1.07658 83690.8
1.0919 75190.2
1.10721 65653.3
1.12253 57188.5
1.13784 48815.2
1.15316 41387.5
1.16848 34808.3
1.18379 28645.2
1.19911 23528.3
1.21443 18996.4
1.22974 15279.6
1.24506 12325.9
1.26038 9840.18
1.27569 8108.71
1.29101 6909.87
1.30632 6377.66
1.32164 6386.21
1.33696 6738.45
1.35227 7529.56
1.36759 8761.55
1.38291 10168.3
1.39822 11828.5
1.41354 13348.7
1.42886 14837.2
1.44417 16352.4
1.45949 17793.4
1.4748 19323.6
1.49012 20993.7
1.50544 23205.9
1.52075 26102.5
1.53607 30124.3
1.55139 35617.6
1.5667 42232
1.58202 51045.8
1.59733 60707.2
1.61265 71742.8
1.62797 83587.6
1.64328 95296.1
1.6586 107321
1.67392 117877
1.68923 127247
1.70455 134790
1.71987 140432
1.73518 144467
1.7505 146905
1.76581 148557
1.78113 149207
1.79645 149322
1.81176 148641
1.82708 147301
1.8424 145071
1.85771 142653
1.87303 139572
1.88835 136351
1.90366 133072
1.91898 129832
1.93429 126782
1.94961 124035
1.96493 121804
1.98024 119940
1.99556 118159
2.01088 116252
2.02619 113657
2.04151 110533
2.05683 106395
2.07214 101833
2.08746 96927.6
2.10277 91867
2.11809 87114.9
2.13341 82491
2.14872 78433.5
2.16404 74864.2
2.17936 71870.9
2.19467 69563.4
2.20999 67714.8
2.22531 66333.6
2.24062 65135.8
2.25594 64037.8
2.27125 62987.6
2.28657 61880.6
2.30189 60801.8
2.3172 59670
2.33252 58546.6
2.34784 57460.7
2.36315 56462.5
2.37847 55681.1
2.39379 54830.6
2.4091 54417.7
2.42442 54076.7
2.43973 53900.7
2.45505 53840.2
2.47037 53789.5
2.48568 53788.9
2.501 53635.2
2.51632 53829.9
2.53163 53753.1
2.54695 53845.9
2.56226 54035.3
2.57758 54140.6
2.5929 54245.5
2.60821 54390.1
2.62353 54530.9
2.63885 54728.4
2.65416 54940.8
2.66948 55234.7
2.6848 55691.8
2.70011 56283.9
2.71543 57259.1
2.73074 58364.8
2.74606 59842.1
2.76138 61706.7
2.77669 64032.7
2.79201 67005.3
2.80733 70429.8
2.82264 74923.4
2.83796 80385.4
2.85328 86981.1
2.86859 95055.1
2.88391 103915
2.89922 114232
2.91454 124788
2.92986 135424
2.94517 145500
2.96049 154317
2.97581 161713
2.99112 166968
3.00644 170061
3.02176 170906
3.03707 169623
3.05239 166519
3.0677 162231
3.08302 157044
3.09834 151536
3.11365 146126
3.12897 141046
3.14429 136500
3.1596 132436
3.17492 129052
3.19024 125813
3.20555 122955
3.22087 120023
3.23618 116889
3.2515 113541
3.26682 109804
3.28213 105798
3.29745 101425
3.31277 97040.1
3.32808 92672.2
3.3434 88415.8
3.35872 84642.4
3.37403 81102.1
3.38935 78291.7
3.40466 75959.6
3.41998 74182.6
3.4353 72874.3
3.45061 71888.7
3.46593 71322.6
3.48125 70923.7
3.49656 70791.1
3.51188 70732.9
3.52719 70769.9
3.54251 70891.9
3.55783 70981.1
3.57314 71024.8
3.58846 70827.1
3.60378 70506.7
3.61909 70144.3
3.63441 69787.1
3.64973 69525.7
3.66504 69318.7
3.68036 69400
3.69567 69848.9
3.71099 70658.2
3.72631 71906.9
3.74162 73554.1
3.75694 75487.2
3.77226 77597
3.78757 79651.4
3.80289 81506.6
3.81821 83019.7
3.83352 84026.9
3.84884 84529.2
3.86415 84448.2
3.87947 83772.7
3.89479 82644.3
3.9101 81149.9
3.92542 79434.4
3.94074 77766.2
3.95605 76140.4
3.97137 74859.9
3.98669 73767.8
4.002 73067.4
4.01732 72645.1
4.03263 72556.2
4.04795 72726.2
4.06327 73191
4.07858 73845.5
4.0939 74745.9
4.10922 75840.2
4.12453 77054.9
4.13985 78391
4.15517 79652.5
4.17048 80806.4
4.1858 81726.7
4.20111 82462.5
4.21643 83004.6
4.23175 83348.1
4.24706 83523
4.26238 83565.4
4.2777 83674.5
4.29301 83842.8
4.30833 84141.6
4.32365 84529.8
4.33896 84931.5
4.35428 85353.6
4.36959 85572.2
4.38491 85636.9
4.40023 85301.3
4.41554 84532.3
4.43086 83269
4.44618 81482.8
4.46149 79143.2
4.47681 76525.7
4.49213 73634.7
4.50744 70755.4
4.52276 67944.6
4.53807 65314.3
4.55339 62986.2
4.56871 60884.1
4.58402 59105.7
4.59934 57548.8
4.61466 56302.9
4.62997 55362.6
4.64529 54634.3
4.6606 54156.7
4.67592 53916.4
4.69124 53913.6
4.70655 54132.1
4.72187 54518.1
4.73719 55115.2
4.7525 55860.2
4.76782 56722.1
4.78314 57699.6
4.79845 58694.3
4.81377 59721.5
4.82908 60714.6
4.8444 61710.2
4.85972 62666.1
4.87503 63589.8
4.89035 64424.4
4.90567 65192.2
4.92098 65922.4
4.9363 66733
4.95162 67662.8
4.96693 68740.5
4.98225 70102.5
4.99756 71910
5.01288 73972.8
5.0282 76142.1
5.04351 78410.4
5.05883 80251.2
5.07415 81668.7
5.08946 82513.7
5.10478 82632.4
5.1201 82286.2
5.13541 81307.7
5.15073 80127.3
5.16604 78701.4
5.18136 77309.1
5.19668 76124.8
5.21199 75261.4
5.22731 74644.7
5.24263 74268.2
5.25794 73910.2
5.27326 73597
5.28858 73323.7
5.30389 73105.4
5.31921 73035.2
5.33452 73074.6
5.34984 73262
5.36516 73381.4
5.38047 73252.2
5.39579 72726.5
5.41111 71706.1
5.42642 70130.6
5.44174 68133.5
5.45706 65684.7
5.47237 62970
5.48769 60076.5
5.503 57249.1
5.51832 54766.7
5.53364 52622.6
5.54895 51046.2
5.56427 49931.8
5.57959 49176.7
5.5949 48734.8
5.61022 48444
5.62553 48299.1
5.64085 48159.8
5.65617 48033.3
5.67148 47947.1
5.6868 47860.3
5.70212 47781.2
5.71743 47695.5
5.73275 47683.7
5.74807 47729.4
5.76338 47862.7
5.7787 48029.6
5.79401 48300.6
5.80933 48708.4
5.82465 49197.3
5.83996 49793.6
5.85528 50459
5.8706 51215.1
5.88591 51977.6
5.90123 52723.5
5.91655 53401.4
5.93186 54025
5.94718 54527
5.96249 54892.7
5.97781 55097.8
5.99313 55084.8
6.00844 54872.2
6.02376 54462.5
6.03908 53962.1
6.05439 53394
6.06971 52821.1
6.08503 52244.1
6.10034 51671.3
6.11566 51178.2
6.13097 50713.8
6.14629 50333.1
6.16161 50017
6.17692 49822.6
6.19224 49764.3
6.20756 49777.5
6.22287 49917.2
6.23819 50133.7
6.25351 50441.5
6.26882 50771.9
6.28414 51053.1
6.29945 51242.3
6.31477 51316.6
6.33009 51236.2
6.3454 51022
6.36072 50672.4
6.37604 50278.7
6.39135 49858.5
6.40667 49517.8
6.42199 49219.2
6.4373 49012.9
6.45262 48912.7
6.46793 48922.4
6.48325 49002.9
6.49857 49142.8
6.51388 49354.5
6.5292 49602.1
6.54452 49902.5
6.55983 50219.4
6.57515 50597.5
6.59046 51016.9
6.60578 51496
6.6211 51987.8
6.63641 52496.9
6.65173 52992.4
6.66705 53467.9
6.68236 53903.5
6.69768 54269.6
6.713 54589.8
6.72831 54823.5
6.74363 54957.3
6.75894 55021.9
6.77426 55017.7
6.78958 54931.1
6.80489 54776.6
6.82021 54551.5
6.83553 54263.9
6.85084 53913.7
6.86616 53497.7
6.88148 53093
6.89679 52683.5
6.91211 52263.2
6.92742 51834.8
6.94274 51428.5
6.95806 51039.8
6.97337 50699.4
6.98869 50406.8
7.00401 50143.2
7.01932 49962
7.03464 49808.8
7.04996 49722.9
7.06527 49705.3
7.08059 49736.4
7.0959 49794.4
7.11122 49856.3
7.12654 49927.8
7.14185 49968
7.15717 49987.6
7.17249 49983.5
7.1878 49925.6
7.20312 49871.2
7.21844 49791.8
7.23375 49730.5
7.24907 49653.5
7.26438 49586.1
7.2797 49503.5
7.29502 49426.3
7.31033 49359.3
7.32565 49291.8
7.34097 49189.2
7.35628 49053.3
7.3716 48866.6
7.38692 48671.4
7.40223 48450.3
7.41755 48254.8
7.43286 48028.8
7.44818 47774.1
7.4635 47547.1
7.47881 47311.2
7.49413 47092.3
7.50945 46883.2
7.52476 46711.7
7.54008 46525.5
7.55539 46300.7
7.57071 46081.9
7.58603 45841.6
7.60134 45615
7.61666 45378.8
7.63198 45175.5
7.64729 44936.2
7.66261 44714.7
7.67793 44582.3
7.69324 44546.6
7.70856 44640.1
7.72387 44824.9
7.73919 45075.2
7.75451 45365.9
7.76982 45673
7.78514 45939.7
7.80046 46161.2
7.81577 46250.7
7.83109 46182.1
7.84641 45993.6
7.86172 45662.5
7.87704 45241.4
7.89235 44730.5
7.90767 44237.6
7.92299 43797.1
7.9383 43401.5
7.95362 43049.4
7.96894 42757.8
7.98425 42515.6
7.99957 42349.8
8.01489 42230.1
8.0302 42158.8
8.04552 42093.1
8.06083 42041.9
8.07615 42016.6
8.09147 42028.5
8.10678 42056.2
8.1221 42078.5
8.13742 42135.8
8.15273 42194.6
8.16805 42279.3
8.18337 42342.1
8.19868 42444.5
8.214 42533.1
8.22931 42632.9
8.24463 42717
8.25995 42749.2
8.27526 42712.6
8.29058 42627.6
8.3059 42515.3
8.32121 42374.4
8.33653 42191.7
8.35185 42009.2
8.36716 41806.6
8.38248 41624.7
8.39779 41466.5
8.41311 41328.5
8.42843 41230.3
8.44374 41183.2
8.45906 41139.2
8.47438 41112.8
8.48969 41124.5
8.50501 41187.1
8.52032 41231.4
8.53564 41332.4
8.55096 41446.9
8.56627 41565.2
8.58159 41700
8.59691 41853.3
8.61222 42059.8
8.62754 42256.7
8.64286 42444
8.65817 42620.5
8.67349 42812.4
8.6888 43013.5
8.70412 43216.8
8.71944 43461.4
8.73475 43785.7
8.75007 44177
8.76539 44655.3
8.7807 45171.1
8.79602 45629.5
8.81134 45993.7
8.82665 46226
8.84197 46361.4
8.85728 46346.3
8.8726 46229
8.88792 46067.6
8.90323 45925
8.91855 45843
8.93387 45840.4
8.94918 45964.3
8.9645 46115
8.97982 46243.8
8.99513 46304.6
9.01045 46285.6
9.02576 46113.8
9.04108 45753.5
9.0564 45246.4
9.07171 44607.2
9.08703 43930.9
9.10235 43219.1
9.11766 42574.2
9.13298 42017.6
9.1483 41564.3
9.16361 41190.2
9.17893 40895.7
9.19424 40655.7
9.20956 40453.7
9.22488 40274.4
9.24019 40134.3
9.25551 40015.3
9.27083 39942.4
9.28614 39839.4
9.30146 39755.2
9.31678 39679.4
9.33209 39593.1
9.34741 39492.8
9.36272 39403.2
9.37804 39300
9.39336 39233.5
9.40867 39161.8
9.42399 39121.3
9.43931 39096.6
9.45462 39088.5
9.46994 39120.8
9.48525 39175.5
9.50057 39309.7
9.51589 39472.5
9.5312 39614.2
9.54652 39733.4
9.56184 39827.8
9.57715 39860.1
9.59247 39810
9.60779 39700.6
9.6231 39550.8
9.63842 39375.2
9.65373 39164.3
9.66905 38956.3
9.68437 38797.7
9.69968 38720.4
9.715 38683.9
9.73032 38693.5
9.74563 38722.2
9.76095 38745.3
9.77627 38779.9
9.79158 38836.7
9.8069 38919.9
9.82221 38980.9
9.83753 39036
9.85285 39086.4
9.86816 39123.7
9.88348 39159
9.8988 39194.1
9.91411 39233.3
9.92943 39303.1
9.94475 39396.2
9.96006 39529.3
9.97538 39663.8
9.99069 39814
10.006 39978.4
10.0213 40181.8
10.0366 40382.7
10.052 40558.4
10.0673 40748.8
10.0826 40932.2
10.0979 41165.3
10.1132 41380.3
10.1285 41652.4
10.1439 41925
10.1592 42212.4
10.1745 42384.8
10.1898 42496.3
10.2051 42532.7
10.2204 42536
10.2358 42503.8
10.2511 42478.9
10.2664 42445.8
10.2817 42504.1
10.297 42632.5
10.3123 42849.3
10.3277 43023.6
10.343 43154.8
10.3583 43180
10.3736 43136.7
10.3889 43007.2
10.4042 42792.6
10.4196 42528.8
10.4349 42234.9
10.4502 41942.4
10.4655 41690.9
10.4808 41506.2
10.4961 41373.4
10.5115 41286.4
10.5268 41238.7
10.5421 41260.8
10.5574 41295.7
10.5727 41352.8
10.588 41411
10.6033 41470.4
10.6187 41501.6
10.634 41475.4
10.6493 41388.7
10.6646 41230.6
10.6799 41041.5
10.6952 40819.2
10.7106 40607.2
10.7259 40443.1
10.7412 40298.9
10.7565 40211.2
10.7718 40165.5
10.7871 40144.1
10.8025 40126.5
10.8178 40121
10.8331 40096.8
10.8484 40029.8
10.8637 39889
10.879 39692.5
10.8944 39447.6
10.9097 39163.8
10.925 38898.6
10.9403 38630.8
10.9556 38387.1
10.9709 38182.3
10.9863 38006.7
11.0016 37845.6
11.0169 37673.7
11.0322 37497.3
11.0475 37352.3
11.0628 37195.1
11.0782 37030.2
11.0935 36854.5
11.1088 36692.4
11.1241 36560.2
11.1394 36437.9
11.1547 36334.7
11.1701 36224.1
11.1854 36137.2
11.2007 36062.5
11.216 35988.7
11.2313 35922.4
11.2466 35852.5
11.262 35775.8
11.2773 35734.4
11.2926 35726.8
11.3079 35707.8
11.3232 35676.4
11.3385 35634.5
11.3538 35604.5
11.3692 35588.4
11.3845 35564.6
11.3998 35551.7
11.4151 35531.5
11.4304 35517.6
11.4457 35512.4
11.4611 35520.2
11.4764 35559.3
11.4917 35605.4
11.507 35660.8
11.5223 35724.5
11.5376 35756.5
11.553 35773.2
11.5683 35804.5
11.5836 35843.4
11.5989 35861.4
11.6142 35840.1
11.6295 35820.2
11.6449 35774.3
11.6602 35688.2
11.6755 35605.9
11.6908 35542.8
11.7061 35494.5
11.7214 35458.7
11.7368 35455
11.7521 35474.1
11.7674 35518
11.7827 35556.3
11.798 35592
11.8133 35580.5
11.8287 35546.7
11.844 35516.2
11.8593 35460.9
11.8746 35405.3
11.8899 35384.3
11.9052 35336.8
11.9206 35302.6
11.9359 35285.5
11.9512 35276.1
11.9665 35272.4
11.9818 35272.6
11.9971 35257.5
12.0125 35233.7
12.0278 35176.8
12.0431 35142.7
12.0584 35118.5
12.0737 35090.8
12.089 35043.4
12.1044 34992
12.1197 34927.4
12.135 34884.4
12.1503 34873.9
12.1656 34814.2
12.1809 34750
12.1962 34731.3
12.2116 34730.9
12.2269 34721.2
12.2422 34703.2
12.2575 34709.2
12.2728 34681.3
12.2881 34651.8
12.3035 34644.1
12.3188 34658.3
12.3341 34649.4
12.3494 34653.2
12.3647 34663.2
12.38 34688.1
12.3954 34680.1
12.4107 34677.8
12.426 34665.5
12.4413 34647.6
12.4566 34657.7
12.4719 34647.8
12.4873 34649.4
12.5026 34647.2
12.5179 34631
12.5332 34614
12.5485 34609.8
12.5638 34618.3
12.5792 34630.6
12.5945 34656.5
12.6098 34664.8
12.6251 34662.4
12.6404 34641.9
12.6557 34624
12.6711 34620.8
12.6864 34613.7
12.7017 34591.7
12.717 34573.8
12.7323 34564.5
12.7476 34567.5
12.763 34613.6
12.7783 34674.9
12.7936 34742.3
12.8089 34791.5
12.8242 34852.6
12.8395 34912.7
12.8549 34945.2
12.8702 34903.9
12.8855 34797.3
12.9008 34724
12.9161 34651.9
12.9314 34576.3
12.9467 34475.3
12.9621 34428.5
12.9774 34392.3
12.9927 34374.5
13.008 34354.1
13.0233 34342.7
13.0386 34331.1
13.054 34339
13.0693 34350.7
13.0846 34341.2
13.0999 34353.8
13.1152 34381.5
13.1305 34378.5
13.1459 34368.8
13.1612 34372.5
13.1765 34379.5
13.1918 34377.4
13.2071 34392.9
13.2224 34433.6
13.2378 34481.8
13.2531 34505.8
13.2684 34545.9
13.2837 34546.8
13.299 34572.4
13.3143 34623.8
13.3297 34634.4
13.345 34659.9
13.3603 34718.2
13.3756 34813.5
13.3909 34938.4
13.4062 35065.8
13.4216 35235.6
13.4369 35445.7
13.4522 35637.3
13.4675 35806.3
13.4828 35923.2
13.4981 35988.1
13.5135 36010.4
13.5288 36022.2
13.5441 36032.8
13.5594 36080.9
13.5747 36148.3
13.59 36168.6
13.6054 36151.3
13.6207 36073.8
13.636 35932
13.6513 35765
13.6666 35576.5
13.6819 35364.5
13.6973 35149.6
13.7126 34989.2
13.7279 34871.3
13.7432 34765.6
13.7585 34652.9
13.7738 34560.6
13.7891 34470.3
13.8045 34391.3
13.8198 34325.6
13.8351 34297.5
13.8504 34294.8
13.8657 34281.2
13.881 34258
13.8964 34262.6
13.9117 34296.3
13.927 34296.1
13.9423 34311.8
13.9576 34345.8
13.9729 34336.8
13.9883 34294.9
14.0036 34226
14.0189 34146.5
14.0342 34017
14.0495 33897.7
14.0648 33770.2
14.0802 33654.6
14.0955 33535.2
14.1108 33425.8
14.1261 33306.4
14.1414 33219.5
14.1567 33158.1
14.1721 33123.4
14.1874 33097.2
14.2027 33059.9
14.218 33019.6
14.2333 32989.6
14.2486 32953.9
14.264 32953.5
14.2793 32959.5
14.2946 32927.6
14.3099 32893.3
14.3252 32845.1
14.3405 32790.9
14.3559 32746.4
14.3712 32735.4
14.3865 32723.1
14.4018 32706.2
14.4171 32707.8
14.4324 32694.1
14.4478 32665.7
14.4631 32638.3
14.4784 32632.5
14.4937 32634.8
14.509 32648.1
14.5243 32662.7
14.5397 32649.6
14.555 32637.8
14.5703 32649.9
14.5856 32631.7
14.6009 32588.2
14.6162 32573.1
14.6315 32539.6
14.6469 32484.2
14.6622 32459.8
14.6775 32436.4
14.6928 32381.2
14.7081 32328.4
14.7234 32303.6
14.7388 32249.1
14.7541 32188.4
14.7694 32126
14.7847 32069.2
14.8 32031.3
14.8153 31998.7
14.8307 31976.1
14.846 31966.2
14.8613 31946.6
14.8766 31893.4
14.8919 31852.4
14.9072 31814
14.9226 31789.1
14.9379 31753.6
14.9532 31733.2
14.9685 31753.5
14.9838 31756.7
14.9991 31747.6
15.0145 31706.2
15.0298 31704.9
15.0451 31711.8
15.0604 31697.1
15.0757 31685.6
15.091 31667.5
15.1064 31668.2
15.1217 31687.5
15.137 31713.2
15.1523 31726.2
15.1676 31762.2
15.1829 31796
15.1983 31829.9
15.2136 31850
15.2289 31854.5
15.2442 31852.6
15.2595 31884
15.2748 31920.1
15.2902 31959.4
15.3055 32016
15.3208 32046.7
15.3361 32061.2
15.3514 32078.8
15.3667 32095.7
15.382 32087.9
15.3974 32067.3
15.4127 32065.9
15.428 32028.7
15.4433 31981.7
15.4586 31957
15.4739 31926.3
15.4893 31896.9
15.5046 31872.8
15.5199 31845.4
15.5352 31811.9
15.5505 31751.1
15.5658 31715.1
15.5812 31697.3
15.5965 31705.1
15.6118 31712
15.6271 31714.1
15.6424 31670.2
15.6577 31615.9
15.6731 31583.9
15.6884 31553.4
15.7037 31560.6
15.719 31556.2
15.7343 31528
15.7496 31496.3
15.765 31452.9
15.7803 31432.5
15.7956 31406.4
15.8109 31368.5
15.8262 31307.7
15.8415 31259.3
15.8569 31212.8
15.8722 31153.4
15.8875 31107.8
15.9028 31079.4
15.9181 31058.9
15.9334 31010.8
15.9488 30979.9
15.9641 30962.3
15.9794 30943.3
15.9947 30934.6
16.01 30902.7
16.0253 30878.3
16.0407 30845.6
16.056 30793.5
16.0713 30761.4
16.0866 30743.3
16.1019 30740.5
16.1172 30735.8
16.1326 30759.1
16.1479 30802.6
16.1632 30839.7
16.1785 30839
16.1938 30834.5
16.2091 30824.4
16.2244 30815.7
16.2398 30785.4
16.2551 30763.6
16.2704 30767.3
16.2857 30769.5
16.301 30782.1
16.3163 30798.6
16.3317 30805.8
16.347 30817.9
16.3623 30815.9
16.3776 30796.2
16.3929 30753
16.4082 30735
16.4236 30713.7
16.4389 30669.3
16.4542 30609
16.4695 30579.8
16.4848 30557.2
16.5001 30543.9
16.5155 30517
16.5308 30478.2
16.5461 30466.7
16.5614 30452.7
16.5767 30408.4
16.592 30363.6
16.6074 30300.3
16.6227 30262.4
16.638 30248.9
16.6533 30251
16.6686 30212.8
16.6839 30169.5
16.6993 30108.7
16.7146 30039.7
16.7299 30022.3
16.7452 30036.1
16.7605 30052
16.7758 30020.2
16.7912 29963
16.8065 29917.8
16.8218 29904.8
16.8371 29907.1
16.8524 29879.8
16.8677 29888.6
16.8831 29915.9
16.8984 29924.8
16.9137 29871
16.929 29837.1
16.9443 29848.2
16.9596 29863.6
16.9749 29873.3
16.9903 29838.2
17.0056 29786.6
17.0209 29742
17.0362 29692.7
17.0515 29676.5
17.0668 29648.4
17.0822 29646.4
17.0975 29655.3
17.1128 29604.3
17.1281 29541.6
17.1434 29542.7
17.1587 29566.7
17.1741 29569
17.1894 29537.4
17.2047 29513.7
17.22 29488.8
17.2353 29435.8
17.2506 29406.4
17.266 29394.2
17.2813 29373.3
17.2966 29364.4
17.3119 29364.9
17.3272 29344.2
17.3425 29356
17.3579 29361.3
17.3732 29332
17.3885 29329.5
17.4038 29336.9
17.4191 29331.9
17.4344 29316
17.4498 29318.7
17.4651 29324.5
17.4804 29306.3
17.4957 29271.1
17.511 29265.6
17.5263 29278.6
17.5417 29272.7
17.557 29254.9
17.5723 29248
17.5876 29256.5
17.6029 29271.1
17.6182 29252.6
17.6336 29256.1
17.6489 29286.6
17.6642 29328
17.6795 29335
17.6948 29326.7
17.7101 29304
17.7255 29278.6
17.7408 29294.6
17.7561 29285.2
17.7714 29261
17.7867 29271.1
17.802 29266.4
17.8173 29246.4
17.8327 29223.5
17.848 29193.5
17.8633 29203.8
17.8786 29198.4
17.8939 29183.7
17.9092 29181.9
17.9246 29206.7
17.9399 29219.4
17.9552 29191.1
17.9705 29162.1
17.9858 29151.7
18.0011 29117.9
18.0165 29073.4
18.0318 29055.1
18.0471 29030.9
18.0624 29035.9
18.0777 29034.7
18.093 29053.6
18.1084 29075
18.1237 29079.4
18.139 29058.2
18.1543 29017.6
18.1696 29003.2
18.1849 29006.6
18.2003 29015.4
18.2156 29034.4
18.2309 29044
18.2462 29037.3
18.2615 29032.5
18.2768 29012.1
18.2922 28985.9
18.3075 29017
18.3228 29052.9
18.3381 29070.7
18.3534 29098.9
18.3687 29126.6
18.3841 29130.4
18.3994 29127.4
18.4147 29160.1
18.43 29178.2
18.4453 29167.7
18.4606 29146.5
18.476 29131.6
18.4913 29095
18.5066 29049.6
18.5219 29030.2
18.5372 28965.7
18.5525 28917
18.5679 28901.9
18.5832 28899.6
18.5985 28904.2
18.6138 28908.3
18.6291 28863.4
18.6444 28822.5
18.6597 28799.6
18.6751 28767.8
18.6904 28771.3
18.7057 28773.1
18.721 28754.3
18.7363 28732.6
18.7516 28746.7
18.767 28754.9
18.7823 28694.8
18.7976 28615.9
18.8129 28586.8
18.8282 28574
18.8435 28545.8
18.8589 28527.5
18.8742 28522.4
18.8895 28504.4
18.9048 28478.8
18.9201 28417.6
18.9354 28374.8
18.9508 28353.2
18.9661 28340.7
18.9814 28336
18.9967 28304.5
19.012 28247.4
19.0273 28249.2
19.0427 28264.6
19.058 28231.1
19.0733 28212.3
19.0886 28172.6
19.1039 28159
19.1192 28145
19.1346 28127.8
19.1499 28130.8
19.1652 28149.7
19.1805 28116.9
19.1958 28119.6
19.2111 28098.9
19.2265 28102.7
19.2418 28140.8
19.2571 28102.1
19.2724 28038.1
19.2877 28047.7
19.303 28033.6
19.3184 27976.7
19.3337 27946.4
19.349 27935.4
19.3643 27913.7
19.3796 27901.3
19.3949 27885.2
19.4102 27839.7
19.4256 27833.7
19.4409 27836.8
19.4562 27821.6
19.4715 27824.3
19.4868 27807.1
19.5021 27769.9
19.5175 27779.6
19.5328 27762.7
19.5481 27710.9
19.5634 27685
19.5787 27683.8
19.594 27665.6
19.6094 27654.6
19.6247 27634.1
19.64 27580.4
19.6553 27587.4
19.6706 27599.5
19.6859 27586
19.7013 27586.8
19.7166 27566.1
19.7319 27545.8
19.7472 27530.3
19.7625 27514.5
19.7778 27529.9
19.7932 27555.1
19.8085 27543.3
19.8238 27501.2
19.8391 27473.2
19.8544 27426.9
19.8697 27415.7
19.8851 27447.7
19.9004 27435.2
19.9157 27395.9
19.931 27395.2
19.9463 27443.6
19.9616 27470.5
19.977 27463.1
19.9923 27449.7
20.0076 27449.5
20.0229 27420
20.0382 27387.1
20.0535 27374
20.0689 27388.8
20.0842 27393.9
20.0995 27384.4
20.1148 27351
20.1301 27327.1
20.1454 27328.9
20.1608 27326.1
20.1761 27334.4
20.1914 27324.8
20.2067 27277.9
20.222 27276.2
20.2373 27337.8
20.2526 27366.8
20.268 27327.6
20.2833 27320.3
20.2986 27311.6
20.3139 27281.5
20.3292 27275.1
20.3445 27256.2
20.3599 27247.2
20.3752 27232.5
20.3905 27237.7
20.4058 27256.4
20.4211 27239.5
20.4364 27257.9
20.4518 27285.2
20.4671 27254.9
20.4824 27275.1
20.4977 27269.6
20.513 27268.5
20.5283 27268.4
20.5437 27223.7
20.559 27227.4
20.5743 27214.8
20.5896 27225
20.6049 27250
20.6202 27243.5
20.6356 27214.9
20.6509 27227
20.6662 27215.3
20.6815 27205.9
20.6968 27164.8
20.7121 27150.9
20.7275 27169.3
20.7428 27187.9
20.7581 27148.8
20.7734 27084.9
20.7887 27078.8
20.804 27058.7
20.8194 27094.3
20.8347 27094.8
20.85 27105.2
20.8653 27112.7
20.8806 27096.9
20.8959 27056.7
20.9113 27053.7
20.9266 27060.8
20.9419 27057.5
20.9572 27022.5
20.9725 27008.6
20.9878 26995.2
21.0031 26969.1
21.0185 27030
21.0338 27044.5
21.0491 27004.5
21.0644 27013.9
21.0797 27042.9
21.095 27045.7
21.1104 27038.4
21.1257 27048.4
21.141 27038.4
21.1563 26981.9
21.1716 26988.8
21.1869 27041.1
21.2023 27027.4
21.2176 26962.5
21.2329 26982.3
21.2482 27028.1
21.2635 27004
21.2788 26989.1
21.2942 27000.4
21.3095 26951.1
21.3248 26990.1
21.3401 27005.5
21.3554 26974.2
21.3707 26955
21.3861 26987.7
21.4014 26979.8
21.4167 26990.3
21.432 26992.4
21.4473 26973.2
21.4626 26954.3
21.478 26943.1
21.4933 26948.3
21.5086 26924.6
21.5239 26946.9
21.5392 26988
21.5545 27000.6
21.5699 26977.9
21.5852 26956.9
21.6005 26958.4
21.6158 26913.5
21.6311 26917.6
21.6464 26955.5
21.6618 26950.3
21.6771 26951.2
21.6924 26980.4
21.7077 27006
21.723 26988.8
21.7383 26977
21.7537 26960.7
21.769 26962.2
21.7843 26950.6
21.7996 26944.5
21.8149 27003.1
21.8302 26964.8
21.8455 26937.8
21.8609 26908
21.8762 26912.1
21.8915 26961.6
21.9068 26950.6
21.9221 26982.5
21.9374 26982.5
21.9528 26967.6
21.9681 26985.8
21.9834 26999.5
21.9987 27013.2
22.014 27019.4
22.0293 27033.6
22.0447 27059.8
22.06 27053.9
22.0753 27047.2
22.0906 27005.2
22.1059 27010.3
22.1212 27051.4
22.1366 27068.3
22.1519 27088.4
22.1672 27095
22.1825 27118.7
22.1978 27123.8
22.2131 27116.2
22.2285 27119.1
22.2438 27110.4
22.2591 27104.3
22.2744 27064.4
22.2897 27049.2
22.305 27113.9
22.3204 27152.7
22.3357 27154.5
22.351 27162.3
22.3663 27181.2
22.3816 27203.2
22.3969 27204.8
22.4123 27172.6
22.4276 27178.8
22.4429 27177
22.4582 27163.8
22.4735 27169.7
22.4888 27177.9
22.5042 27176.7
22.5195 27218.7
22.5348 27233.6
22.5501 27217.9
22.5654 27143.4
22.5807 27115
22.596 27159.8
22.6114 27224.2
22.6267 27215.3
22.642 27189.9
22.6573 27195.9
22.6726 27194.7
22.6879 27219.9
22.7033 27205
22.7186 27177.9
22.7339 27187
22.7492 27172.5
22.7645 27179.5
22.7798 27210
22.7952 27219.2
22.8105 27235.8
22.8258 27286.3
22.8411 27273.5
22.8564 27295.9
22.8717 27284.7
22.8871 27245.1
22.9024 27281
22.9177 27252.6
22.933 27222.4
22.9483 27223.7
22.9636 27297.6
22.979 27284.7
22.9943 27340.6
