# xPDFsuite Configuration #
[PDF]
wavelength = 0.1
dataformat = QA
inputfile = B3_Bronze-3nm_ss_08.chi
backgroundfile = B3_Li-bkg_ss.chi
mode = xray
bgscale = 0.98705
composition = Ti O2
outputtype = iq
qmaxinst = 23.0
qmin = 0.1
qmax = 23.0
rmax = 30.0
rmin = 0.0
rstep = 0.01
rpoly = 0.9

[Misc]
inputdir = E:/Beamtime/PETRA-III_September-2019/BeamData/processed/Run1/B3/chi/chi_w_sigmas/chi_scaled
savedir = E:/Beamtime/PETRA-III_September-2019/BeamData/processed/Run1/B3
backgroundfilefull = E:/Beamtime/PETRA-III_September-2019/BeamData/processed/Run1/B3/chi/chi_w_sigmas/chi_scaled/B3_Li-bkg_ss.chi

#### start data
#S 1
#L Q($\AA^{-1}$)  intensity(a.u.)
0.111649 0
0.126965 0
0.142282 0
0.157598 0
0.172914 0
0.188231 0
0.203547 0
0.218864 0
0.23418 0
0.249496 0
0.264813 0
0.280129 0
0.295445 0
0.310762 0
0.326078 0
0.341394 0
0.356711 0
0.372027 0
0.387343 0
0.40266 0
0.417976 0
0.433292 0
0.448609 0
0.463925 0
0.479241 0
0.494558 0
0.509874 0
0.525191 0
0.540507 0
0.555823 0
0.57114 0
0.586456 0
0.601772 0
0.617089 0
0.632405 0
0.647721 0
0.663038 0
0.678354 0
0.69367 0
0.708987 0
0.724303 0
0.739619 0
0.754936 0
0.770252 0
0.785568 0
0.800885 0
0.816201 0
0.831518 0
0.846834 0
0.86215 1.28024
0.877467 91917
0.892783 91825.8
0.908099 91994.6
0.923416 92912.6
0.938732 94291.4
0.954048 95916.7
0.969365 97436.4
0.984681 98350.8
0.999997 98273
1.01531 97213.4
1.03063 94600.2
1.04595 91041
1.06126 86198.7
1.07658 80173.4
1.0919 73846.6
1.10721 66434.8
1.12253 59530.1
1.13784 52344.4
1.15316 45623.3
1.16848 39557.1
1.18379 33712.7
1.19911 28818
1.21443 24032.9
1.22974 20057.9
1.24506 16738
1.26038 13946.6
1.27569 11920.9
1.29101 10338.2
1.30632 9393.38
1.32164 8965.27
1.33696 8936.37
1.35227 9405.92
1.36759 10266.5
1.38291 11384.3
1.39822 12736.7
1.41354 14086.4
1.42886 15354.5
1.44417 16519.4
1.45949 17660
1.4748 18844.2
1.49012 20184.6
1.50544 21978.7
1.52075 24362.5
1.53607 27766.2
1.55139 32567.5
1.5667 38417.2
1.58202 46540.7
1.59733 55817.5
1.61265 67016.9
1.62797 79597.2
1.64328 92696.4
1.6586 107064
1.67392 120661
1.68923 134006
1.70455 145840
1.71987 155910
1.73518 164280
1.7505 170458
1.76581 175241
1.78113 177882
1.79645 178709
1.81176 177747
1.82708 175255
1.8424 171067
1.85771 166294
1.87303 160694
1.88835 155206
1.90366 149951
1.91898 145221
1.93429 141296
1.94961 138412
1.96493 136579
1.98024 135704
1.99556 135253
2.01088 134917
2.02619 133929
2.04151 132195
2.05683 129203
2.07214 125290
2.08746 120499
2.10277 114975
2.11809 109274
2.13341 103205
2.14872 97507.3
2.16404 92074
2.17936 87165.4
2.19467 83005.7
2.20999 79481.7
2.22531 76818.8
2.24062 74681.4
2.25594 73000.5
2.27125 71604.5
2.28657 70237.3
2.30189 68948.5
2.3172 67496
2.33252 65982.7
2.34784 64247.4
2.36315 62495
2.37847 60745.1
2.39379 58837.1
2.4091 57415.4
2.42442 56022.4
2.43973 55147.8
2.45505 54439.5
2.47037 53947.2
2.48568 53922.6
2.501 54177.7
2.51632 54633
2.53163 56100.1
2.54695 56602.2
2.56226 57180.4
2.57758 57395.9
2.5929 57191.5
2.60821 57024.6
2.62353 57301.5
2.63885 57757
2.65416 57700.5
2.66948 57453.9
2.6848 57118.2
2.70011 56892.6
2.71543 56724.5
2.73074 56764.5
2.74606 56945.6
2.76138 57323.3
2.77669 57982.9
2.79201 59006.6
2.80733 60422.7
2.82264 62602.4
2.83796 65526.4
2.85328 69366.3
2.86859 74290.4
2.88391 80023.9
2.89922 87101.6
2.91454 94973.7
2.92986 103610
2.94517 112710
2.96049 121712
2.97581 130604
2.99112 138267
3.00644 144772
3.02176 149404
3.03707 152083
3.05239 152747
3.0677 151497
3.08302 148556
3.09834 144299
3.11365 139149
3.12897 133667
3.14429 128354
3.1596 123554
3.17492 119710
3.19024 116595
3.20555 114511
3.22087 113124
3.23618 112096
3.2515 111166
3.26682 109989
3.28213 108467
3.29745 106281
3.31277 103651
3.32808 100482
3.3434 96893.6
3.35872 93268.7
3.37403 89444.8
3.38935 85984.6
3.40466 82725
3.41998 79920.8
3.4353 77557.6
3.45061 75625.1
3.46593 74212.3
3.48125 73069.5
3.49656 72291.6
3.51188 71803.7
3.52719 71655.4
3.54251 71941.1
3.55783 72476.6
3.57314 73233
3.58846 74136.8
3.60378 75130.1
3.61909 76141
3.63441 77111.7
3.64973 77994.8
3.66504 78651.5
3.68036 79140.1
3.69567 79372.1
3.71099 79434.5
3.72631 79502.5
3.74162 79583.4
3.75694 79880.1
3.77226 80301.2
3.78757 81008
3.80289 82031.6
3.81821 83344.5
3.83352 84845.6
3.84884 86540.1
3.86415 88164.2
3.87947 89660.5
3.89479 90767.3
3.9101 91417.2
3.92542 91561.8
3.94074 91224.6
3.95605 90355.5
3.97137 89175.8
3.98669 87628.6
4.002 86077.6
4.01732 84542
4.03263 83188.2
4.04795 82153
4.06327 81505.4
4.07858 81277.9
4.0939 81448.3
4.10922 81893.1
4.12453 82476.1
4.13985 83091.2
4.15517 83553.9
4.17048 83741.6
4.1858 83612.4
4.20111 83182.5
4.21643 82503.2
4.23175 81555.6
4.24706 80374.9
4.26238 79123.8
4.2777 77879.1
4.29301 76761.7
4.30833 75738
4.32365 74946.1
4.33896 74437.8
4.35428 74220.2
4.36959 74194.8
4.38491 74459.7
4.40023 74885.3
4.41554 75423.6
4.43086 75938.1
4.44618 76250
4.46149 76332.8
4.47681 76060.2
4.49213 75469.5
4.50744 74560.3
4.52276 73305.4
4.53807 71708.2
4.55339 69904.6
4.56871 67928.3
4.58402 65877.3
4.59934 63785.8
4.61466 61816.6
4.62997 60036.6
4.64529 58417.9
4.6606 57034.6
4.67592 55835.5
4.69124 54879.9
4.70655 54149
4.72187 53646.7
4.73719 53377.4
4.7525 53361.5
4.76782 53608.3
4.78314 54164.6
4.79845 54937.5
4.81377 55961
4.82908 57186.4
4.8444 58605
4.85972 60171
4.87503 61802.3
4.89035 63452.2
4.90567 65074.5
4.92098 66690.2
4.9363 68274
4.95162 69841.6
4.96693 71446
4.98225 73203.8
4.99756 75328.3
5.01288 77588.9
5.0282 79867.8
5.04351 82137.4
5.05883 83915.7
5.07415 85244.4
5.08946 85975.9
5.10478 85931.7
5.1201 85354.8
5.13541 84060
5.15073 82500.2
5.16604 80640.5
5.18136 78795.6
5.19668 77095.8
5.21199 75674.7
5.22731 74511.5
5.24263 73675.2
5.25794 73026.5
5.27326 72567.5
5.28858 72297.8
5.30389 72260.9
5.31921 72547.4
5.33452 73136.1
5.34984 73983.1
5.36516 74840.7
5.38047 75528.6
5.39579 75761.7
5.41111 75415.9
5.42642 74360
5.44174 72740.7
5.45706 70455.3
5.47237 67762
5.48769 64708.8
5.503 61578.6
5.51832 58704.1
5.53364 56078.6
5.54895 53983.6
5.56427 52290.7
5.57959 50955.2
5.5949 49925.6
5.61022 49069.5
5.62553 48416.7
5.64085 47778.5
5.65617 47266.5
5.67148 46876.3
5.6868 46607
5.70212 46400.1
5.71743 46247.4
5.73275 46243.4
5.74807 46342.2
5.76338 46602.5
5.7787 47013.2
5.79401 47554.4
5.80933 48263.3
5.82465 49041.7
5.83996 49864.8
5.85528 50700.3
5.8706 51553.3
5.88591 52368.8
5.90123 53103.6
5.91655 53766.6
5.93186 54321.6
5.94718 54785.2
5.96249 55100
5.97781 55277.7
5.99313 55307.5
6.00844 55262.2
6.02376 55097.6
6.03908 54874.3
6.05439 54602.2
6.06971 54338.4
6.08503 54098.2
6.10034 53920.3
6.11566 53797.4
6.13097 53711.3
6.14629 53663.9
6.16161 53631.1
6.17692 53654.6
6.19224 53743.3
6.20756 53878.1
6.22287 54086.7
6.23819 54325.1
6.25351 54561.1
6.26882 54720.7
6.28414 54772.7
6.29945 54671.1
6.31477 54409.3
6.33009 53997.7
6.3454 53431.7
6.36072 52746.1
6.37604 51975.9
6.39135 51209.8
6.40667 50508.3
6.42199 49909
6.4373 49447.1
6.45262 49093.5
6.46793 48882.4
6.48325 48738.3
6.49857 48657.5
6.51388 48595.7
6.5292 48591
6.54452 48573.4
6.55983 48563.1
6.57515 48595.8
6.59046 48660.8
6.60578 48789.1
6.6211 48968.3
6.63641 49206.8
6.65173 49444.7
6.66705 49770.5
6.68236 50127.2
6.69768 50544.4
6.713 50994.7
6.72831 51457.3
6.74363 51930
6.75894 52451.2
6.77426 52990.7
6.78958 53515.1
6.80489 54008.1
6.82021 54467.7
6.83553 54865.9
6.85084 55163.5
6.86616 55382.4
6.88148 55500.1
6.89679 55545.8
6.91211 55482.9
6.92742 55332.1
6.94274 55108.3
6.95806 54810.8
6.97337 54473.8
6.98869 54090.1
7.00401 53696.6
7.01932 53286.6
7.03464 52841.2
7.04996 52432.6
7.06527 52037.3
7.08059 51672.3
7.0959 51317.6
7.11122 50994.4
7.12654 50660.3
7.14185 50333.8
7.15717 50010.1
7.17249 49728.6
7.1878 49456.8
7.20312 49241
7.21844 49071.4
7.23375 48945.8
7.24907 48845.1
7.26438 48753.1
7.2797 48659.1
7.29502 48545.5
7.31033 48408.5
7.32565 48252.6
7.34097 48111.7
7.35628 47975.6
7.3716 47835.3
7.38692 47719.7
7.40223 47633.5
7.41755 47621.5
7.43286 47659.2
7.44818 47701.5
7.4635 47776.8
7.47881 47866
7.49413 47999.8
7.50945 48115.2
7.52476 48220.8
7.54008 48270
7.55539 48242.9
7.57071 48135.2
7.58603 47931.5
7.60134 47674.1
7.61666 47385.9
7.63198 47089.4
7.64729 46806.3
7.66261 46524
7.67793 46336.3
7.69324 46267.8
7.70856 46294.4
7.72387 46431.9
7.73919 46658.2
7.75451 46965.1
7.76982 47307.1
7.78514 47598.4
7.80046 47842.5
7.81577 47986.7
7.83109 48002.7
7.84641 47865.1
7.86172 47598.8
7.87704 47239.7
7.89235 46786.1
7.90767 46295
7.92299 45793.4
7.9383 45339.7
7.95362 44933
7.96894 44566.9
7.98425 44212.6
7.99957 43878.7
8.01489 43583.4
8.0302 43304.4
8.04552 43035.9
8.06083 42816.8
8.07615 42647.5
8.09147 42532.8
8.10678 42477.1
8.1221 42459.5
8.13742 42510.2
8.15273 42610.3
8.16805 42762.1
8.18337 42918.4
8.19868 43123.8
8.214 43345.4
8.22931 43613.4
8.24463 43880
8.25995 44076.2
8.27526 44168.3
8.29058 44210.7
8.3059 44243.8
8.32121 44242.6
8.33653 44197.9
8.35185 44101.7
8.36716 43964.8
8.38248 43804.2
8.39779 43662
8.41311 43502.8
8.42843 43334.4
8.44374 43158.5
8.45906 43010.2
8.47438 42869.9
8.48969 42741.3
8.50501 42613.1
8.52032 42481.1
8.53564 42374.3
8.55096 42289.6
8.56627 42164.2
8.58159 42041.5
8.59691 41924.1
8.61222 41879.9
8.62754 41861.8
8.64286 41886.6
8.65817 41945.7
8.67349 42029.5
8.6888 42153.4
8.70412 42354.4
8.71944 42683.6
8.73475 43131.2
8.75007 43693.1
8.76539 44340.6
8.7807 45085.6
8.79602 45804.6
8.81134 46463.6
8.82665 46967.6
8.84197 47321.9
8.85728 47515.5
8.8726 47596.7
8.88792 47597.8
8.90323 47558.7
8.91855 47563.1
8.93387 47642.8
8.94918 47812.2
8.9645 48019.7
8.97982 48204.5
8.99513 48276.2
9.01045 48236.1
9.02576 48033.5
9.04108 47650
9.0564 47097.8
9.07171 46413.7
9.08703 45661.8
9.10235 44912.8
9.11766 44209
9.13298 43558.1
9.1483 42986.3
9.16361 42498.5
9.17893 42095.5
9.19424 41738.2
9.20956 41433.9
9.22488 41140.5
9.24019 40897.6
9.25551 40680.2
9.27083 40476.5
9.28614 40274.9
9.30146 40096
9.31678 39944.5
9.33209 39829.9
9.34741 39738
9.36272 39680.2
9.37804 39632.8
9.39336 39629.2
9.40867 39645.7
9.42399 39685.1
9.43931 39764.7
9.45462 39861.9
9.46994 39963.7
9.48525 40100.8
9.50057 40274.7
9.51589 40450.1
9.5312 40570.6
9.54652 40662.6
9.56184 40694.5
9.57715 40641.7
9.59247 40478.4
9.60779 40271
9.6231 40011.3
9.63842 39741.5
9.65373 39446.3
9.66905 39178.1
9.68437 38966.5
9.69968 38834.5
9.715 38745.3
9.73032 38708.7
9.74563 38680.7
9.76095 38698.4
9.77627 38720.7
9.79158 38800.5
9.8069 38917.1
9.82221 39044.8
9.83753 39141.2
9.85285 39216.9
9.86816 39294
9.88348 39369.5
9.8988 39437
9.91411 39519.8
9.92943 39658.1
9.94475 39803.6
9.96006 39991.7
9.97538 40175.1
9.99069 40368.7
10.006 40553.3
10.0213 40749.6
10.0366 40932.8
10.052 41142.6
10.0673 41354.5
10.0826 41568.4
10.0979 41779.2
10.1132 42004.1
10.1285 42277.1
10.1439 42569.4
10.1592 42863.9
10.1745 43060.4
10.1898 43189.4
10.2051 43264.5
10.2204 43277.3
10.2358 43258.8
10.2511 43262.5
10.2664 43279.7
10.2817 43368.1
10.297 43533.8
10.3123 43791.2
10.3277 44036.1
10.343 44232.8
10.3583 44337.7
10.3736 44346
10.3889 44244.2
10.4042 44053.7
10.4196 43813.8
10.4349 43561.7
10.4502 43278.7
10.4655 43047.9
10.4808 42864.7
10.4961 42737.6
10.5115 42633
10.5268 42565.6
10.5421 42583.8
10.5574 42657.3
10.5727 42734.5
10.588 42782.1
10.6033 42836.5
10.6187 42850.4
10.634 42819
10.6493 42749.9
10.6646 42615.7
10.6799 42428.1
10.6952 42252.8
10.7106 42098.7
10.7259 41952.1
10.7412 41827.1
10.7565 41723.2
10.7718 41683.6
10.7871 41696.7
10.8025 41717.3
10.8178 41756.6
10.8331 41758.4
10.8484 41700.9
10.8637 41555.9
10.879 41378.9
10.8944 41154.1
10.9097 40887.2
10.925 40609.2
10.9403 40339.8
10.9556 40083.2
10.9709 39855.8
10.9863 39625.6
11.0016 39425.2
11.0169 39242.1
11.0322 39062.7
11.0475 38868.1
11.0628 38660.3
11.0782 38458.6
11.0935 38235.8
11.1088 38032.9
11.1241 37848.3
11.1394 37644.5
11.1547 37445.6
11.1701 37287.2
11.1854 37169.1
11.2007 37043.6
11.216 36908.4
11.2313 36797.3
11.2466 36694.5
11.262 36605.8
11.2773 36547.5
11.2926 36498.6
11.3079 36447.1
11.3232 36416.1
11.3385 36388.1
11.3538 36351
11.3692 36312.4
11.3845 36291.3
11.3998 36274
11.4151 36247.5
11.4304 36222.3
11.4457 36209.9
11.4611 36222.4
11.4764 36229.5
11.4917 36262.8
11.507 36318.7
11.5223 36401.1
11.5376 36458.7
11.553 36508
11.5683 36538.1
11.5836 36561.5
11.5989 36559.5
11.6142 36546.8
11.6295 36516.6
11.6449 36452
11.6602 36379.1
11.6755 36296.3
11.6908 36230.1
11.7061 36171.9
11.7214 36164.6
11.7368 36187.2
11.7521 36212.9
11.7674 36273.5
11.7827 36308.7
11.798 36362.6
11.8133 36358.7
11.8287 36341.6
11.844 36321.2
11.8593 36304.6
11.8746 36261.9
11.8899 36231.4
11.9052 36200.2
11.9206 36183
11.9359 36187.7
11.9512 36202
11.9665 36223.4
11.9818 36234.1
11.9971 36245.7
12.0125 36257.3
12.0278 36267
12.0431 36275.6
12.0584 36274.4
12.0737 36260.3
12.089 36229.9
12.1044 36194.5
12.1197 36132.5
12.135 36088.5
12.1503 36090.6
12.1656 36067.3
12.1809 36035.2
12.1962 36010
12.2116 36002.3
12.2269 35983.7
12.2422 35952.4
12.2575 35938.4
12.2728 35913.8
12.2881 35901.4
12.3035 35907.1
12.3188 35921.2
12.3341 35884.6
12.3494 35837.7
12.3647 35826.3
12.38 35814
12.3954 35777.8
12.4107 35738.4
12.426 35734.9
12.4413 35706.5
12.4566 35684.2
12.4719 35647.8
12.4873 35599.7
12.5026 35548.2
12.5179 35497.3
12.5332 35442.7
12.5485 35426
12.5638 35399.6
12.5792 35398.4
12.5945 35403.9
12.6098 35393.3
12.6251 35402
12.6404 35413
12.6557 35414.1
12.6711 35419.2
12.6864 35421
12.7017 35418.4
12.717 35415.9
12.7323 35427.3
12.7476 35441.3
12.763 35481.7
12.7783 35535.3
12.7936 35612.1
12.8089 35686.4
12.8242 35765.1
12.8395 35835.5
12.8549 35891.8
12.8702 35874.6
12.8855 35800.1
12.9008 35744.9
12.9161 35680.2
12.9314 35597.3
12.9467 35493.1
12.9621 35423.8
12.9774 35385.4
12.9927 35365.8
13.008 35333.3
13.0233 35295.8
13.0386 35283.4
13.054 35294.8
13.0693 35295.5
13.0846 35273.9
13.0999 35272
13.1152 35268.8
13.1305 35263.7
13.1459 35245.4
13.1612 35253.2
13.1765 35251.1
13.1918 35255.3
13.2071 35247.5
13.2224 35245.3
13.2378 35251.7
13.2531 35284.7
13.2684 35336.2
13.2837 35364.6
13.299 35368.6
13.3143 35395.5
13.3297 35429.3
13.345 35475.6
13.3603 35545
13.3756 35641
13.3909 35775.9
13.4062 35916.7
13.4216 36089.4
13.4369 36284.3
13.4522 36483.3
13.4675 36697
13.4828 36856.5
13.4981 36955
13.5135 37012.6
13.5288 37042
13.5441 37077.1
13.5594 37111.3
13.5747 37161.9
13.59 37197.4
13.6054 37181.6
13.6207 37125.7
13.636 37018.2
13.6513 36865.3
13.6666 36673.8
13.6819 36467.6
13.6973 36288
13.7126 36124.3
13.7279 35975.2
13.7432 35872.5
13.7585 35785.9
13.7738 35700.2
13.7891 35621.1
13.8045 35531.6
13.8198 35457.1
13.8351 35434
13.8504 35434.2
13.8657 35428.6
13.881 35421.6
13.8964 35429.1
13.9117 35468.5
13.927 35489.6
13.9423 35493.8
13.9576 35517.6
13.9729 35497.2
13.9883 35447.1
14.0036 35383.8
14.0189 35317.1
14.0342 35207
14.0495 35078.1
14.0648 34947.1
14.0802 34815.3
14.0955 34681.7
14.1108 34525.1
14.1261 34389
14.1414 34313.5
14.1567 34236.9
14.1721 34154.2
14.1874 34107.7
14.2027 34053.1
14.218 33995
14.2333 33962.7
14.2486 33952.8
14.264 33940.2
14.2793 33936.6
14.2946 33901.5
14.3099 33854
14.3252 33813.1
14.3405 33780.2
14.3559 33736.8
14.3712 33694.2
14.3865 33676.7
14.4018 33670.6
14.4171 33674.5
14.4324 33649.7
14.4478 33630.1
14.4631 33612.3
14.4784 33629.1
14.4937 33666.3
14.509 33702.3
14.5243 33724.5
14.5397 33724.9
14.555 33741.1
14.5703 33753.4
14.5856 33756.7
14.6009 33757
14.6162 33749.9
14.6315 33685.8
14.6469 33615
14.6622 33585.6
14.6775 33554.5
14.6928 33517.3
14.7081 33461.6
14.7234 33430
14.7388 33376.8
14.7541 33321
14.7694 33258.3
14.7847 33203.5
14.8 33148.7
14.8153 33088
14.8307 33039.3
14.846 33013.2
14.8613 32986.4
14.8766 32954.6
14.8919 32923.8
14.9072 32905
14.9226 32868.3
14.9379 32826.6
14.9532 32784.4
14.9685 32769.4
14.9838 32765
14.9991 32766.1
15.0145 32739.6
15.0298 32726.2
15.0451 32704.5
15.0604 32688.3
15.0757 32698.5
15.091 32693.4
15.1064 32721.2
15.1217 32751.3
15.137 32723.8
15.1523 32720.5
15.1676 32746.2
15.1829 32759.3
15.1983 32784.5
15.2136 32794.1
15.2289 32826.8
15.2442 32869.5
15.2595 32900.9
15.2748 32945.6
15.2902 32982.6
15.3055 32997.6
15.3208 33024.9
15.3361 33044.2
15.3514 33084.3
15.3667 33109.2
15.382 33096.2
15.3974 33120.2
15.4127 33138.4
15.428 33118.5
15.4433 33067.9
15.4586 33029.2
15.4739 32988
15.4893 32958.6
15.5046 32925.3
15.5199 32902
15.5352 32858.4
15.5505 32789.4
15.5658 32760.6
15.5812 32736.6
15.5965 32732.5
15.6118 32712.5
15.6271 32696.1
15.6424 32674
15.6577 32660.2
15.6731 32655.8
15.6884 32639.9
15.7037 32637.5
15.719 32614.6
15.7343 32596.8
15.7496 32598.6
15.765 32568.1
15.7803 32519.7
15.7956 32476.1
15.8109 32435.9
15.8262 32408.3
15.8415 32362.8
15.8569 32305.8
15.8722 32256.8
15.8875 32198.5
15.9028 32147.9
15.9181 32125.8
15.9334 32081.8
15.9488 32036.5
15.9641 31995.7
15.9794 31963.6
15.9947 31939.9
16.01 31904.6
16.0253 31901.5
16.0407 31896.2
16.056 31864.7
16.0713 31845.8
16.0866 31788.1
16.1019 31759.3
16.1172 31769.1
16.1326 31766.2
16.1479 31753.2
16.1632 31760.4
16.1785 31773.7
16.1938 31779.2
16.2091 31763.8
16.2244 31759.7
16.2398 31716.6
16.2551 31695.4
16.2704 31698.4
16.2857 31697.7
16.301 31709.5
16.3163 31702.6
16.3317 31679.5
16.347 31668.3
16.3623 31666.2
16.3776 31664
16.3929 31656.1
16.4082 31657.1
16.4236 31639.4
16.4389 31603.6
16.4542 31564.7
16.4695 31528.8
16.4848 31503.8
16.5001 31479.7
16.5155 31466.5
16.5308 31445.4
16.5461 31412
16.5614 31401.8
16.5767 31395.2
16.592 31343.1
16.6074 31264.6
16.6227 31235.6
16.638 31215.3
16.6533 31204.4
16.6686 31197.7
16.6839 31176.3
16.6993 31166.4
16.7146 31115.8
16.7299 31061.1
16.7452 31065
16.7605 31069.6
16.7758 31033.1
16.7912 31015.4
16.8065 31019
16.8218 30999.3
16.8371 30975.7
16.8524 30983.3
16.8677 30982.3
16.8831 30952.8
16.8984 30946.6
16.9137 30906.4
16.929 30863.9
16.9443 30867.7
16.9596 30878.1
16.9749 30891.6
16.9903 30875
17.0056 30844.2
17.0209 30803.1
17.0362 30784
17.0515 30761.9
17.0668 30725.7
17.0822 30740.7
17.0975 30728.3
17.1128 30669.1
17.1281 30638.9
17.1434 30630.6
17.1587 30612.1
17.1741 30588.8
17.1894 30555.9
17.2047 30561.2
17.22 30562.9
17.2353 30534
17.2506 30495.8
17.266 30461.6
17.2813 30447.3
17.2966 30463.4
17.3119 30455.2
17.3272 30413.5
17.3425 30394.8
17.3579 30387.7
17.3732 30352.3
17.3885 30349.9
17.4038 30379.2
17.4191 30382.6
17.4344 30388.6
17.4498 30383.6
17.4651 30377.6
17.4804 30403
17.4957 30393
17.511 30346.5
17.5263 30329.8
17.5417 30315.6
17.557 30332.9
17.5723 30341.5
17.5876 30315.9
17.6029 30340.9
17.6182 30344.1
17.6336 30347
17.6489 30363.4
17.6642 30379.5
17.6795 30405.8
17.6948 30421.3
17.7101 30396.8
17.7255 30394.3
17.7408 30409.7
17.7561 30375.1
17.7714 30357.6
17.7867 30377.3
17.802 30372.3
17.8173 30333.5
17.8327 30301.4
17.848 30265.6
17.8633 30262
17.8786 30254.7
17.8939 30233.3
17.9092 30227.7
17.9246 30232.9
17.9399 30210
17.9552 30179.1
17.9705 30175.4
17.9858 30171.2
18.0011 30168.9
18.0165 30162.2
18.0318 30149.5
18.0471 30128.3
18.0624 30095.2
18.0777 30073.2
18.093 30062.6
18.1084 30054.9
18.1237 30035.4
18.139 30038.1
18.1543 30041.4
18.1696 30038.6
18.1849 30019.5
18.2003 30001.6
18.2156 30025.9
18.2309 30011.9
18.2462 29997.5
18.2615 30012.3
18.2768 30009.9
18.2922 30003
18.3075 30016.2
18.3228 30027.7
18.3381 30051.2
18.3534 30087.5
18.3687 30116.6
18.3841 30131
18.3994 30159.4
18.4147 30179.6
18.43 30179.3
18.4453 30157.9
18.4606 30131.3
18.476 30159.4
18.4913 30141.8
18.5066 30095
18.5219 30085.5
18.5372 30041.3
18.5525 29994.2
18.5679 29960.6
18.5832 29944.7
18.5985 29922.8
18.6138 29896.9
18.6291 29880.6
18.6444 29883.2
18.6597 29872.8
18.6751 29830.1
18.6904 29808.8
18.7057 29808
18.721 29797
18.7363 29738.3
18.7516 29726.6
18.767 29730.7
18.7823 29700.9
18.7976 29632
18.8129 29617.1
18.8282 29644
18.8435 29640.3
18.8589 29618.8
18.8742 29582.9
18.8895 29537.2
18.9048 29513.3
18.9201 29462.1
18.9354 29459.5
18.9508 29490.5
18.9661 29455.4
18.9814 29436.7
18.9967 29392
19.012 29316.2
19.0273 29315.9
19.0427 29355.8
19.058 29341.6
19.0733 29291.4
19.0886 29274.4
19.1039 29260.2
19.1192 29212.5
19.1346 29189.3
19.1499 29191.8
19.1652 29228.7
19.1805 29203.1
19.1958 29209.5
19.2111 29220.6
19.2265 29200
19.2418 29183.1
19.2571 29159.4
19.2724 29112.9
19.2877 29123.4
19.303 29128.4
19.3184 29088.1
19.3337 29053.1
19.349 29027.5
19.3643 28987.7
19.3796 28958.5
19.3949 28956.8
19.4102 28960.2
19.4256 28940.7
19.4409 28939.1
19.4562 28921.2
19.4715 28904.3
19.4868 28897.3
19.5021 28875.9
19.5175 28886.2
19.5328 28890.8
19.5481 28862.7
19.5634 28827.8
19.5787 28818.8
19.594 28789.3
19.6094 28764.7
19.6247 28711.2
19.64 28677.9
19.6553 28687.9
19.6706 28690.6
19.6859 28691
19.7013 28657.1
19.7166 28636.5
19.7319 28640.9
19.7472 28641.3
19.7625 28653.3
19.7778 28648.8
19.7932 28624.3
19.8085 28580.9
19.8238 28543.3
19.8391 28550.7
19.8544 28513.4
19.8697 28477.7
19.8851 28507.9
19.9004 28537
19.9157 28493.7
19.931 28457.3
19.9463 28472.7
19.9616 28497.5
19.977 28471.8
19.9923 28448
20.0076 28462
20.0229 28450
20.0382 28422.2
20.0535 28397.4
20.0689 28418.1
20.0842 28433
20.0995 28415.4
20.1148 28386.3
20.1301 28373.3
20.1454 28353.7
20.1608 28341.1
20.1761 28351.5
20.1914 28329.4
20.2067 28294
20.222 28273.8
20.2373 28309.9
20.2526 28346.2
20.268 28354.2
20.2833 28348.9
20.2986 28351.1
20.3139 28370.4
20.3292 28327.2
20.3445 28275.2
20.3599 28292.3
20.3752 28275.8
20.3905 28286
20.4058 28337.2
20.4211 28342.7
20.4364 28316.7
20.4518 28307.2
20.4671 28283.6
20.4824 28309.7
20.4977 28358
20.513 28377.3
20.5283 28390.3
20.5437 28363.7
20.559 28348.9
20.5743 28306.4
20.5896 28296.3
20.6049 28312.6
20.6202 28277
20.6356 28250.1
20.6509 28277.9
20.6662 28290.2
20.6815 28270.9
20.6968 28265.9
20.7121 28225.4
20.7275 28210.2
20.7428 28204.4
20.7581 28192.6
20.7734 28191.6
20.7887 28168.9
20.804 28133.8
20.8194 28171.8
20.8347 28211.5
20.85 28219.6
20.8653 28220.7
20.8806 28210.5
20.8959 28166
20.9113 28152.7
20.9266 28182.2
20.9419 28192.1
20.9572 28160.7
20.9725 28116
20.9878 28092.5
21.0031 28092.9
21.0185 28135.6
21.0338 28093.1
21.0491 28095.4
21.0644 28147.1
21.0797 28109.4
21.095 28129.7
21.1104 28136.9
21.1257 28134.2
21.141 28156.4
21.1563 28147.7
21.1716 28147.8
21.1869 28167.4
21.2023 28157
21.2176 28091.9
21.2329 28089.8
21.2482 28126.8
21.2635 28107.4
21.2788 28131.1
21.2942 28120.7
21.3095 28031.7
21.3248 28065.4
21.3401 28115.6
21.3554 28131.2
21.3707 28072.7
21.3861 28095.5
21.4014 28057.5
21.4167 28052
21.432 28063.4
21.4473 28029.4
21.4626 27997.1
21.478 27982
21.4933 28017.4
21.5086 28029.6
21.5239 28056.6
21.5392 28073.9
21.5545 28035.4
21.5699 28003
21.5852 28014.1
21.6005 28037.5
21.6158 28017.7
21.6311 28007.9
21.6464 28027.2
21.6618 28002
21.6771 27985.8
21.6924 28024.4
21.7077 28046.2
21.723 28046.4
21.7383 28037.1
21.7537 28050.4
21.769 28075.4
21.7843 28070.8
21.7996 28037.5
21.8149 28031.4
21.8302 27984.6
21.8455 27983.7
21.8609 27992.5
21.8762 28005.4
21.8915 28053.5
21.9068 28043.8
21.9221 28053.3
21.9374 28055.1
21.9528 28036.9
21.9681 28013.4
21.9834 28056.5
21.9987 28073.8
22.014 28022.2
22.0293 28071.4
22.0447 28146.1
22.06 28157.4
22.0753 28139.7
22.0906 28150.6
22.1059 28175.5
22.1212 28202.9
22.1366 28208.4
22.1519 28238.6
22.1672 28229.4
22.1825 28183.1
22.1978 28227.4
22.2131 28231.8
22.2285 28193.9
22.2438 28191.5
22.2591 28190.2
22.2744 28187.6
22.2897 28149.3
22.305 28182.8
22.3204 28219.5
22.3357 28245.4
22.351 28238.3
22.3663 28223.4
22.3816 28260.3
22.3969 28295.2
22.4123 28277.9
22.4276 28281.8
22.4429 28272.3
22.4582 28278.5
22.4735 28303.8
22.4888 28283.3
22.5042 28254.8
22.5195 28272.2
22.5348 28252.9
22.5501 28288.6
22.5654 28281.4
22.5807 28274.7
22.596 28303.9
22.6114 28345.3
22.6267 28332.4
22.642 28294.6
22.6573 28279.1
22.6726 28340.7
22.6879 28349
22.7033 28324.8
22.7186 28292.2
22.7339 28296.6
22.7492 28319
22.7645 28335.3
22.7798 28324.7
22.7952 28348.1
22.8105 28339.8
22.8258 28342.8
22.8411 28363.1
22.8564 28386.1
22.8717 28375.2
22.8871 28322.8
22.9024 28341.9
22.9177 28313.3
22.933 28308
22.9483 28366.6
22.9636 28415.4
22.979 28426.9
22.9943 28424.5
