# xPDFsuite Configuration #
[PDF]
wavelength = 0.1
dataformat = QA
inputfile = B3_Bronze-3nm_ss_13.chi
backgroundfile = B3_Li-bkg_ss.chi
mode = xray
bgscale = 0.98705
composition = Ti O2
outputtype = iq
qmaxinst = 23.0
qmin = 0.1
qmax = 23.0
rmax = 30.0
rmin = 0.0
rstep = 0.01
rpoly = 0.9

[Misc]
inputdir = E:/Beamtime/PETRA-III_September-2019/BeamData/processed/Run1/B3/chi/chi_w_sigmas/chi_scaled
savedir = E:/Beamtime/PETRA-III_September-2019/BeamData/processed/Run1/B3
backgroundfilefull = E:/Beamtime/PETRA-III_September-2019/BeamData/processed/Run1/B3/chi/chi_w_sigmas/chi_scaled/B3_Li-bkg_ss.chi

#### start data
#S 1
#L Q($\AA^{-1}$)  intensity(a.u.)
0.111649 0
0.126965 0
0.142282 0
0.157598 0
0.172914 0
0.188231 0
0.203547 0
0.218864 0
0.23418 0
0.249496 0
0.264813 0
0.280129 0
0.295445 0
0.310762 0
0.326078 0
0.341394 0
0.356711 0
0.372027 0
0.387343 0
0.40266 0
0.417976 0
0.433292 0
0.448609 0
0.463925 0
0.479241 0
0.494558 0
0.509874 0
0.525191 0
0.540507 0
0.555823 0
0.57114 0
0.586456 0
0.601772 0
0.617089 0
0.632405 0
0.647721 0
0.663038 0
0.678354 0
0.69367 0
0.708987 0
0.724303 0
0.739619 0
0.754936 0
0.770252 0
0.785568 0
0.800885 0
0.816201 0
0.831518 0
0.846834 0
0.86215 1.40434
0.877467 100826
0.892783 101502
0.908099 102513
0.923416 104311
0.938732 106910
0.954048 109347
0.969365 111039
0.984681 111601
0.999997 110614
1.01531 108240
1.03063 103773
1.04595 97974.2
1.06126 90965.6
1.07658 82701
1.0919 74596.6
1.10721 65443
1.12253 57241.9
1.13784 48948.6
1.15316 41527.1
1.16848 34964
1.18379 28836.2
1.19911 23839.9
1.21443 19308.9
1.22974 15567.9
1.24506 12536.5
1.26038 9997.55
1.27569 8236.57
1.29101 7024.28
1.30632 6460.45
1.32164 6447.85
1.33696 6850.04
1.35227 7619.32
1.36759 8807.04
1.38291 10255.1
1.39822 11987.2
1.41354 13563.6
1.42886 15006.9
1.44417 16367.3
1.45949 17679.4
1.4748 19182.4
1.49012 20849.5
1.50544 23123.8
1.52075 25998
1.53607 29997.6
1.55139 35373.4
1.5667 41888.6
1.58202 50646.2
1.59733 60408.5
1.61265 71542.9
1.62797 83634.6
1.64328 95567
1.6586 108085
1.67392 119225
1.68923 129391
1.70455 137714
1.71987 144070
1.73518 148676
1.7505 151648
1.76581 153758
1.78113 154652
1.79645 154765
1.81176 153853
1.82708 152276
1.8424 149707
1.85771 147008
1.87303 143596
1.88835 140041
1.90366 136424
1.91898 132907
1.93429 129763
1.94961 127048
1.96493 124943
1.98024 123201
1.99556 121617
2.01088 119953
2.02619 117604
2.04151 114569
2.05683 110569
2.07214 105943
2.08746 100908
2.10277 95529.2
2.11809 90533
2.13341 85651.8
2.14872 81378
2.16404 77589.4
2.17936 74376.6
2.19467 71786.8
2.20999 69630.6
2.22531 68004.2
2.24062 66625.8
2.25594 65446.2
2.27125 64352.3
2.28657 63236.6
2.30189 62151.3
2.3172 60895.8
2.33252 59629.4
2.34784 58339.9
2.36315 57190.9
2.37847 56221.6
2.39379 55231.6
2.4091 54657
2.42442 54080.8
2.43973 53876.7
2.45505 53749.7
2.47037 53740.4
2.48568 53944.8
2.501 54154.3
2.51632 54294.5
2.53163 54282.2
2.54695 54210.7
2.56226 54367.6
2.57758 54424.1
2.5929 54504.9
2.60821 54670.6
2.62353 54861.8
2.63885 55082.9
2.65416 55289.1
2.66948 55577.1
2.6848 56026.9
2.70011 56590.1
2.71543 57498.7
2.73074 58548.1
2.74606 59899.8
2.76138 61564.8
2.77669 63591
2.79201 66187.9
2.80733 69220.3
2.82264 73249.2
2.83796 78198.5
2.85328 84243.3
2.86859 91766.5
2.88391 100153
2.89922 110032
2.91454 120267
2.92986 130767
2.94517 140858
2.96049 149800
2.97581 157482
2.99112 163095
3.00644 166582
3.02176 167752
3.03707 166824
3.05239 163985
3.0677 159821
3.08302 154643
3.09834 149094
3.11365 143612
3.12897 138435
3.14429 133870
3.1596 129880
3.17492 126653
3.19024 123710
3.20555 121238
3.22087 118774
3.23618 116207
3.2515 113366
3.26682 110131
3.28213 106592
3.29745 102509
3.31277 98381
3.32808 94103.8
3.3434 89858.2
3.35872 86054.2
3.37403 82445.7
3.38935 79501.7
3.40466 76984.1
3.41998 75071
3.4353 73586.9
3.45061 72509.2
3.46593 71852.5
3.48125 71461.9
3.49656 71300.9
3.51188 71252.8
3.52719 71380.4
3.54251 71625.9
3.55783 71801.8
3.57314 71938.7
3.58846 71898.2
3.60378 71753.2
3.61909 71531.1
3.63441 71215.5
3.64973 71023.8
3.66504 70836.3
3.68036 70934.9
3.69567 71302.5
3.71099 72036.4
3.72631 73156.8
3.74162 74661.2
3.75694 76501.9
3.77226 78557.5
3.78757 80621.8
3.80289 82558.6
3.81821 84173.4
3.83352 85354.3
3.84884 86057.9
3.86415 86170.9
3.87947 85638.2
3.89479 84615.4
3.9101 83204.9
3.92542 81522.4
3.94074 79816.5
3.95605 78133.4
3.97137 76738
3.98669 75529.3
4.002 74703.1
4.01732 74184.4
4.03263 73960
4.04795 74045.4
4.06327 74433
4.07858 75046
4.0939 75826.5
4.10922 76750.4
4.12453 77768.7
4.13985 78876.3
4.15517 79834.3
4.17048 80671.6
4.1858 81258.6
4.20111 81675.6
4.21643 81996.5
4.23175 82114.7
4.24706 82141.1
4.26238 82044.7
4.2777 82012.9
4.29301 82026.4
4.30833 82161.8
4.32365 82500.8
4.33896 82873.1
4.35428 83333.7
4.36959 83637.9
4.38491 83951.6
4.40023 83891.2
4.41554 83519.6
4.43086 82647.2
4.44618 81294.4
4.46149 79392.9
4.47681 77132.8
4.49213 74586.9
4.50744 71923.7
4.52276 69252.1
4.53807 66601.2
4.55339 64198.8
4.56871 61966.1
4.58402 60044.6
4.59934 58333.7
4.61466 56949.2
4.62997 55883.2
4.64529 55044.7
4.6606 54462
4.67592 54089.8
4.69124 53977.1
4.70655 54125.7
4.72187 54451.8
4.73719 54981.4
4.7525 55659.2
4.76782 56457.4
4.78314 57430
4.79845 58479.8
4.81377 59606.5
4.82908 60765.9
4.8444 61902.8
4.85972 63024.6
4.87503 64021.4
4.89035 64936.7
4.90567 65761.3
4.92098 66595.6
4.9363 67443.4
4.95162 68399.2
4.96693 69462.5
4.98225 70824.6
4.99756 72624.8
5.01288 74688.1
5.0282 76855.8
5.04351 79110.7
5.05883 80935.3
5.07415 82333
5.08946 83168.6
5.10478 83230.6
5.1201 82831.8
5.13541 81753.1
5.15073 80487.2
5.16604 78925.2
5.18136 77377.4
5.19668 76027.5
5.21199 75026.3
5.22731 74305.7
5.24263 73867.1
5.25794 73513.6
5.27326 73253.3
5.28858 73068.4
5.30389 72974.3
5.31921 73043.1
5.33452 73226.6
5.34984 73549.5
5.36516 73810.2
5.38047 73809.3
5.39579 73356.9
5.41111 72413.4
5.42642 70905.1
5.44174 68953.2
5.45706 66459.4
5.47237 63687
5.48769 60709.4
5.503 57812.5
5.51832 55261.9
5.53364 53056.3
5.54895 51406
5.56427 50161.8
5.57959 49294.4
5.5949 48771.3
5.61022 48417.1
5.62553 48218.8
5.64085 48044.3
5.65617 47892.5
5.67148 47766.1
5.6868 47727
5.70212 47699.7
5.71743 47661.7
5.73275 47722.3
5.74807 47808
5.76338 47964.4
5.7787 48183.3
5.79401 48501.3
5.80933 48938.8
5.82465 49423.9
5.83996 50028
5.85528 50664.7
5.8706 51369.2
5.88591 52079.7
5.90123 52804.2
5.91655 53466.8
5.93186 54089.4
5.94718 54621.3
5.96249 54991.2
5.97781 55231.1
5.99313 55266.4
6.00844 55138.2
6.02376 54812.8
6.03908 54401.9
6.05439 53880
6.06971 53339.2
6.08503 52797
6.10034 52299.3
6.11566 51827.5
6.13097 51406.7
6.14629 51032.5
6.16161 50754
6.17692 50563.3
6.19224 50467
6.20756 50465.9
6.22287 50603.7
6.23819 50832.4
6.25351 51139.6
6.26882 51442.5
6.28414 51696.8
6.29945 51839.4
6.31477 51856.1
6.33009 51739.5
6.3454 51486.4
6.36072 51126.6
6.37604 50680
6.39135 50207
6.40667 49782.6
6.42199 49420.8
6.4373 49179.4
6.45262 49021.7
6.46793 48954.3
6.48325 48971.2
6.49857 49052.4
6.51388 49202.2
6.5292 49398.4
6.54452 49631.5
6.55983 49874.1
6.57515 50199.6
6.59046 50549.6
6.60578 51000.6
6.6211 51481.4
6.63641 52002.8
6.65173 52454.1
6.66705 52913.8
6.68236 53345.3
6.69768 53762.8
6.713 54127.9
6.72831 54438.1
6.74363 54641.2
6.75894 54778.5
6.77426 54852.9
6.78958 54886.6
6.80489 54826.2
6.82021 54684.4
6.83553 54483.3
6.85084 54219.5
6.86616 53858.3
6.88148 53464.2
6.89679 53063.3
6.91211 52667.9
6.92742 52290.5
6.94274 51939.3
6.95806 51567.4
6.97337 51228.1
6.98869 50927.7
7.00401 50669.4
7.01932 50454.5
7.03464 50260.6
7.04996 50136.5
7.06527 50057.6
7.08059 50060.4
7.0959 50078.2
7.11122 50122.8
7.12654 50158
7.14185 50188.5
7.15717 50212.8
7.17249 50198.4
7.1878 50145.8
7.20312 50065.8
7.21844 49984.8
7.23375 49880.5
7.24907 49778.2
7.26438 49680.1
7.2797 49573.5
7.29502 49454.3
7.31033 49321
7.32565 49204.9
7.34097 49065.7
7.35628 48927.2
7.3716 48748.2
7.38692 48568
7.40223 48367.4
7.41755 48202.8
7.43286 48026.7
7.44818 47834.1
7.4635 47649.7
7.47881 47436.2
7.49413 47270.7
7.50945 47138.9
7.52476 47015.1
7.54008 46877
7.55539 46688.1
7.57071 46458.1
7.58603 46194.6
7.60134 45929
7.61666 45679.4
7.63198 45449.2
7.64729 45228.1
7.66261 45026.6
7.67793 44911.4
7.69324 44907.9
7.70856 44985.6
7.72387 45185.6
7.73919 45447.6
7.75451 45769.4
7.76982 46119
7.78514 46418.7
7.80046 46659.2
7.81577 46770.3
7.83109 46728.5
7.84641 46543.1
7.86172 46219.8
7.87704 45781.3
7.89235 45268.8
7.90767 44744.5
7.92299 44262.2
7.9383 43845.8
7.95362 43502.5
7.96894 43196.5
7.98425 42929.1
7.99957 42690.5
8.01489 42526.6
8.0302 42386.2
8.04552 42286.2
8.06083 42197.8
8.07615 42149.8
8.09147 42134.9
8.10678 42161.1
8.1221 42196.5
8.13742 42261.5
8.15273 42339.7
8.16805 42439.4
8.18337 42530.1
8.19868 42665.9
8.214 42794.5
8.22931 42952.8
8.24463 43071.8
8.25995 43106
8.27526 43060
8.29058 42967.9
8.3059 42886
8.32121 42781.5
8.33653 42649.2
8.35185 42471.3
8.36716 42265
8.38248 42073.4
8.39779 41905.5
8.41311 41765.9
8.42843 41636.6
8.44374 41547.6
8.45906 41481.5
8.47438 41455.5
8.48969 41431.1
8.50501 41435.5
8.52032 41459
8.53564 41524.2
8.55096 41598
8.56627 41688.8
8.58159 41805.9
8.59691 41960.7
8.61222 42154.5
8.62754 42349.2
8.64286 42553.1
8.65817 42745.3
8.67349 42923.5
8.6888 43120
8.70412 43343.3
8.71944 43640.9
8.73475 43991.8
8.75007 44403
8.76539 44888.7
8.7807 45429.3
8.79602 45928
8.81134 46362.3
8.82665 46650.3
8.84197 46817
8.85728 46803.6
8.8726 46680.9
8.88792 46511.8
8.90323 46347.8
8.91855 46256
8.93387 46248.4
8.94918 46358.7
8.9645 46488.8
8.97982 46597.7
8.99513 46611.7
9.01045 46537.3
9.02576 46317
9.04108 45938.8
9.0564 45412.9
9.07171 44778.4
9.08703 44100.3
9.10235 43417.9
9.11766 42766.1
9.13298 42190.8
9.1483 41681.9
9.16361 41275.7
9.17893 40972.7
9.19424 40730.2
9.20956 40515.2
9.22488 40332.7
9.24019 40195.8
9.25551 40102.7
9.27083 40011.9
9.28614 39930.1
9.30146 39849
9.31678 39772.6
9.33209 39681.2
9.34741 39600.1
9.36272 39543.4
9.37804 39492.1
9.39336 39448.4
9.40867 39396.8
9.42399 39348.3
9.43931 39341.8
9.45462 39364.4
9.46994 39419.8
9.48525 39494.3
9.50057 39610.7
9.51589 39758.2
9.5312 39888.2
9.54652 40014.2
9.56184 40083.7
9.57715 40082
9.59247 39999
9.60779 39859
9.6231 39680.7
9.63842 39486.6
9.65373 39285.1
9.66905 39109.1
9.68437 38972.9
9.69968 38891.4
9.715 38836.9
9.73032 38818.3
9.74563 38824.5
9.76095 38864.7
9.77627 38931.3
9.79158 38995.5
9.8069 39082
9.82221 39132.6
9.83753 39183.7
9.85285 39201.3
9.86816 39234.5
9.88348 39283
9.8988 39337.1
9.91411 39376.6
9.92943 39467.4
9.94475 39575.4
9.96006 39720.1
9.97538 39867.7
9.99069 40047.1
10.006 40205.2
10.0213 40419.7
10.0366 40590.2
10.052 40784.6
10.0673 40962.6
10.0826 41171
10.0979 41400.6
10.1132 41617.9
10.1285 41883.4
10.1439 42165.2
10.1592 42460.9
10.1745 42672
10.1898 42820
10.2051 42904.9
10.2204 42903.4
10.2358 42860.9
10.2511 42820.6
10.2664 42809.6
10.2817 42868.1
10.297 42983.8
10.3123 43182.8
10.3277 43358.1
10.343 43476.5
10.3583 43501.8
10.3736 43431.8
10.3889 43287.6
10.4042 43090.4
10.4196 42841.9
10.4349 42552.5
10.4502 42252.1
10.4655 42013
10.4808 41826.9
10.4961 41704.6
10.5115 41616.5
10.5268 41578.4
10.5421 41592.4
10.5574 41628.2
10.5727 41686.2
10.588 41742.3
10.6033 41797.7
10.6187 41824.9
10.634 41796
10.6493 41707.4
10.6646 41577.7
10.6799 41411.3
10.6952 41205.8
10.7106 41025.5
10.7259 40854.1
10.7412 40710.9
10.7565 40590.6
10.7718 40533.5
10.7871 40491.1
10.8025 40465.2
10.8178 40472
10.8331 40470.7
10.8484 40393.8
10.8637 40220.6
10.879 40023.3
10.8944 39784.7
10.9097 39514.8
10.925 39240.1
10.9403 38970.7
10.9556 38724
10.9709 38511.9
10.9863 38329
11.0016 38163.2
11.0169 38002.2
11.0322 37832.8
11.0475 37653
11.0628 37446.6
11.0782 37268.5
11.0935 37080.8
11.1088 36926.8
11.1241 36766.8
11.1394 36652.8
11.1547 36545.7
11.1701 36446
11.1854 36365.2
11.2007 36269.9
11.216 36168.1
11.2313 36129.9
11.2466 36071.7
11.262 35993.3
11.2773 35898
11.2926 35846.8
11.3079 35804.9
11.3232 35783
11.3385 35766.7
11.3538 35731.1
11.3692 35695.9
11.3845 35664
11.3998 35646.7
11.4151 35617.9
11.4304 35628.8
11.4457 35635.6
11.4611 35668.5
11.4764 35706.7
11.4917 35751.6
11.507 35797
11.5223 35874.2
11.5376 35936.6
11.553 36006.4
11.5683 36054.8
11.5836 36080.3
11.5989 36085.7
11.6142 36068.2
11.6295 36040.9
11.6449 35972.2
11.6602 35882.2
11.6755 35804.1
11.6908 35728.3
11.7061 35703.5
11.7214 35686.6
11.7368 35711.4
11.7521 35737.2
11.7674 35767.4
11.7827 35773.4
11.798 35801.7
11.8133 35799.7
11.8287 35782.1
11.844 35759.7
11.8593 35720.2
11.8746 35659.3
11.8899 35632.8
11.9052 35591.4
11.9206 35539.8
11.9359 35521.8
11.9512 35531.5
11.9665 35546.4
11.9818 35565.1
11.9971 35573.3
12.0125 35564.4
12.0278 35520.4
12.0431 35471.9
12.0584 35441.2
12.0737 35411.6
12.089 35360.1
12.1044 35325.9
12.1197 35262.8
12.135 35214.4
12.1503 35169.2
12.1656 35129.4
12.1809 35094.6
12.1962 35065.7
12.2116 35013.1
12.2269 34992.6
12.2422 34978
12.2575 34985.4
12.2728 34976.3
12.2881 34973.3
12.3035 34970.6
12.3188 34984.2
12.3341 34969.3
12.3494 34953.6
12.3647 34951.7
12.38 34952.5
12.3954 34939.5
12.4107 34930.6
12.426 34917.7
12.4413 34910.2
12.4566 34923.6
12.4719 34915.6
12.4873 34900.5
12.5026 34869.4
12.5179 34845.8
12.5332 34807
12.5485 34786.9
12.5638 34781
12.5792 34786.8
12.5945 34797.3
12.6098 34811
12.6251 34829.6
12.6404 34823.1
12.6557 34826
12.6711 34825
12.6864 34809.2
12.7017 34796.7
12.717 34776.3
12.7323 34771.1
12.7476 34779.1
12.763 34819
12.7783 34869.4
12.7936 34935.8
12.8089 35011.4
12.8242 35095.8
12.8395 35158.9
12.8549 35196.3
12.8702 35156.6
12.8855 35061.4
12.9008 34985.9
12.9161 34904.8
12.9314 34835.5
12.9467 34753.6
12.9621 34702
12.9774 34640.4
12.9927 34602.5
13.008 34593.2
13.0233 34593.6
13.0386 34588.3
13.054 34588.4
13.0693 34574.1
13.0846 34575.5
13.0999 34593.4
13.1152 34615.2
13.1305 34623.6
13.1459 34608.6
13.1612 34603.7
13.1765 34590.9
13.1918 34601.1
13.2071 34622.2
13.2224 34649.7
13.2378 34662.9
13.2531 34683.7
13.2684 34735.3
13.2837 34759.8
13.299 34787.2
13.3143 34824.8
13.3297 34851.2
13.345 34903.2
13.3603 34994.9
13.3756 35107.4
13.3909 35238.4
13.4062 35389.1
13.4216 35570.4
13.4369 35755.8
13.4522 35928.2
13.4675 36086.7
13.4828 36208.6
13.4981 36305.3
13.5135 36366.3
13.5288 36390.8
13.5441 36416.6
13.5594 36456.3
13.5747 36491.6
13.59 36488.7
13.6054 36446.7
13.6207 36364.4
13.636 36201.4
13.6513 36007
13.6666 35807.6
13.6819 35604.5
13.6973 35391.7
13.7126 35206.5
13.7279 35082
13.7432 34994.7
13.7585 34909
13.7738 34831.9
13.7891 34755.9
13.8045 34670.6
13.8198 34598.4
13.8351 34549.8
13.8504 34521.7
13.8657 34491.5
13.881 34467.9
13.8964 34470.6
13.9117 34517.7
13.927 34529.4
13.9423 34544.5
13.9576 34586.2
13.9729 34576.1
13.9883 34524.4
14.0036 34466.2
14.0189 34411.7
14.0342 34306.9
14.0495 34157
14.0648 34030.6
14.0802 33923.7
14.0955 33800.5
14.1108 33680.1
14.1261 33595.4
14.1414 33531.4
14.1567 33450
14.1721 33369.4
14.1874 33335.8
14.2027 33324.7
14.218 33308.9
14.2333 33275.5
14.2486 33246.1
14.264 33211.6
14.2793 33197.2
14.2946 33166.2
14.3099 33144.6
14.3252 33115.8
14.3405 33090.6
14.3559 33052.3
14.3712 33010.2
14.3865 32996.4
14.4018 32988.9
14.4171 33000.6
14.4324 32977.8
14.4478 32925.1
14.4631 32848.7
14.4784 32831.4
14.4937 32832.7
14.509 32838.5
14.5243 32864.5
14.5397 32880.7
14.555 32880.4
14.5703 32888.8
14.5856 32890.4
14.6009 32880.1
14.6162 32847.9
14.6315 32782.7
14.6469 32727.5
14.6622 32708.8
14.6775 32679.1
14.6928 32639.6
14.7081 32579.5
14.7234 32520.1
14.7388 32471.6
14.7541 32435.7
14.7694 32402.9
14.7847 32370.1
14.8 32336
14.8153 32286.8
14.8307 32242.2
14.846 32208.4
14.8613 32189.9
14.8766 32158.1
14.8919 32130.9
14.9072 32111.8
14.9226 32079.9
14.9379 32022
14.9532 31989.6
14.9685 32016.5
14.9838 32027.4
14.9991 32038.9
15.0145 32033.6
15.0298 32019
15.0451 31991.8
15.0604 31964.9
15.0757 31971
15.091 31939.4
15.1064 31942.3
15.1217 31943.2
15.137 31935.5
15.1523 31949.6
15.1676 31986
15.1829 32024.1
15.1983 32050.1
15.2136 32075.4
15.2289 32119.6
15.2442 32164.1
15.2595 32191.5
15.2748 32204.6
15.2902 32241.7
15.3055 32250.9
15.3208 32260.1
15.3361 32280.8
15.3514 32313.3
15.3667 32365.6
15.382 32380.6
15.3974 32399.7
15.4127 32401.4
15.428 32369.3
15.4433 32320.5
15.4586 32279.1
15.4739 32217.4
15.4893 32159.6
15.5046 32131.5
15.5199 32113.3
15.5352 32097.5
15.5505 32030.2
15.5658 31989.3
15.5812 31973.2
15.5965 31959.6
15.6118 31934.2
15.6271 31914.3
15.6424 31912.9
15.6577 31913.6
15.6731 31910.1
15.6884 31887
15.7037 31860.2
15.719 31833.4
15.7343 31785.4
15.7496 31744.5
15.765 31690.5
15.7803 31643
15.7956 31621.1
15.8109 31611.8
15.8262 31612.5
15.8415 31575.4
15.8569 31526.9
15.8722 31473.9
15.8875 31409.7
15.9028 31344.5
15.9181 31306.5
15.9334 31251.7
15.9488 31197.3
15.9641 31178.8
15.9794 31160.9
15.9947 31131.9
16.01 31080
16.0253 31065.8
16.0407 31058.2
16.056 31034.5
16.0713 31020.4
16.0866 31002.2
16.1019 31009.5
16.1172 31036.7
16.1326 31038.4
16.1479 31056.1
16.1632 31071.8
16.1785 31062.1
16.1938 31059.3
16.2091 31056.3
16.2244 31037.9
16.2398 30999.7
16.2551 31001.2
16.2704 31027.1
16.2857 31026.2
16.301 31033.2
16.3163 31031.7
16.3317 30998.6
16.347 31007.2
16.3623 31030.3
16.3776 31015.7
16.3929 30984.6
16.4082 30965.1
16.4236 30970.3
16.4389 30943.1
16.4542 30884.7
16.4695 30829.2
16.4848 30802.6
16.5001 30795.3
16.5155 30798
16.5308 30775.6
16.5461 30727
16.5614 30698.4
16.5767 30647.9
16.592 30593.2
16.6074 30536.6
16.6227 30539.9
16.638 30533
16.6533 30517.4
16.6686 30493.7
16.6839 30418
16.6993 30369.2
16.7146 30335.9
16.7299 30306.6
16.7452 30311.1
16.7605 30309.6
16.7758 30283.5
16.7912 30238.7
16.8065 30199.6
16.8218 30167.7
16.8371 30140.3
16.8524 30135
16.8677 30171
16.8831 30161.8
16.8984 30145.4
16.9137 30095.2
16.929 30062.8
16.9443 30070.6
16.9596 30057.4
16.9749 30067.1
16.9903 30051.4
17.0056 30031
17.0209 29993.3
17.0362 29970.8
17.0515 29969.7
17.0668 29949.8
17.0822 29956.1
17.0975 29941.5
17.1128 29875.7
17.1281 29815.1
17.1434 29776.4
17.1587 29788.7
17.1741 29801.6
17.1894 29762.1
17.2047 29748.1
17.22 29746.5
17.2353 29731.4
17.2506 29714.9
17.266 29676.8
17.2813 29636
17.2966 29629.7
17.3119 29609.5
17.3272 29573.7
17.3425 29555.4
17.3579 29557.6
17.3732 29548
17.3885 29568.9
17.4038 29590.5
17.4191 29586.5
17.4344 29561.6
17.4498 29550.9
17.4651 29567.3
17.4804 29599.1
17.4957 29604
17.511 29575.9
17.5263 29550.2
17.5417 29510.3
17.557 29509.3
17.5723 29545.8
17.5876 29544.8
17.6029 29537.4
17.6182 29545
17.6336 29557.3
17.6489 29574.6
17.6642 29594.6
17.6795 29591.5
17.6948 29607.8
17.7101 29604.5
17.7255 29602.2
17.7408 29581.8
17.7561 29557.2
17.7714 29540.6
17.7867 29530.4
17.802 29551.4
17.8173 29552.8
17.8327 29500.7
17.848 29444.1
17.8633 29438.8
17.8786 29431.7
17.8939 29410.9
17.9092 29441.7
17.9246 29450.9
17.9399 29440.3
17.9552 29420.6
17.9705 29378.5
17.9858 29360.1
18.0011 29334.3
18.0165 29319.6
18.0318 29311.9
18.0471 29286.2
18.0624 29304.6
18.0777 29314.9
18.093 29327.2
18.1084 29313.7
18.1237 29298.8
18.139 29286.7
18.1543 29265.8
18.1696 29259.6
18.1849 29246.6
18.2003 29222.6
18.2156 29245.9
18.2309 29264.1
18.2462 29287.4
18.2615 29289.3
18.2768 29269.7
18.2922 29258
18.3075 29297.1
18.3228 29345
18.3381 29358.5
18.3534 29380.7
18.3687 29396.4
18.3841 29408.9
18.3994 29410
18.4147 29406.1
18.43 29401.6
18.4453 29396.4
18.4606 29381
18.476 29373.3
18.4913 29344.5
18.5066 29299.7
18.5219 29278.8
18.5372 29251
18.5525 29214.6
18.5679 29180.7
18.5832 29157.5
18.5985 29115.9
18.6138 29098.7
18.6291 29089.7
18.6444 29074.3
18.6597 29067.1
18.6751 29032.9
18.6904 29041.5
18.7057 29057
18.721 29037.9
18.7363 29005.8
18.7516 29009.8
18.767 28989.1
18.7823 28920.2
18.7976 28865
18.8129 28859.7
18.8282 28857.9
18.8435 28831.8
18.8589 28803.9
18.8742 28773.4
18.8895 28747
18.9048 28731.7
18.9201 28667.8
18.9354 28628
18.9508 28632.7
18.9661 28620.7
18.9814 28612.2
18.9967 28599
19.012 28541.9
19.0273 28530.6
19.0427 28530.5
19.058 28533.4
19.0733 28506.8
19.0886 28437.5
19.1039 28398.4
19.1192 28381.3
19.1346 28411.2
19.1499 28428.3
19.1652 28454.1
19.1805 28436.8
19.1958 28436.3
19.2111 28454.7
19.2265 28452
19.2418 28452.5
19.2571 28416.2
19.2724 28352.1
19.2877 28339.8
19.303 28319.1
19.3184 28265.4
19.3337 28228.5
19.349 28215
19.3643 28196.6
19.3796 28161.3
19.3949 28149.8
19.4102 28143.2
19.4256 28134.9
19.4409 28144.4
19.4562 28113.2
19.4715 28079.1
19.4868 28047.4
19.5021 28008.1
19.5175 28022.2
19.5328 28018.7
19.5481 27980.4
19.5634 27981.3
19.5787 27960.4
19.594 27913.4
19.6094 27928.6
19.6247 27944
19.64 27915.9
19.6553 27916.8
19.6706 27909.8
19.6859 27887.6
19.7013 27886.5
19.7166 27872
19.7319 27852.4
19.7472 27814.3
19.7625 27801.6
19.7778 27784.3
19.7932 27778.6
19.8085 27776.8
19.8238 27773.9
19.8391 27753.5
19.8544 27744.1
19.8697 27753.9
19.8851 27755.9
19.9004 27769
19.9157 27770.1
19.931 27753.5
19.9463 27741.3
19.9616 27701.4
19.977 27672.7
19.9923 27718.9
20.0076 27743.1
20.0229 27710.1
20.0382 27668.6
20.0535 27653.7
20.0689 27662.9
20.0842 27657.7
20.0995 27623.4
20.1148 27604.1
20.1301 27592.4
20.1454 27592.3
20.1608 27619.4
20.1761 27611.5
20.1914 27560.6
20.2067 27519.6
20.222 27512.1
20.2373 27536.2
20.2526 27559.8
20.268 27563.9
20.2833 27577.4
20.2986 27567.3
20.3139 27510.7
20.3292 27485.2
20.3445 27485.6
20.3599 27496.3
20.3752 27500.9
20.3905 27528.4
20.4058 27547.4
20.4211 27536.5
20.4364 27545.3
20.4518 27551.6
20.4671 27535.1
20.4824 27575.8
20.4977 27578.2
20.513 27548.4
20.5283 27561.1
20.5437 27561.6
20.559 27571.3
20.5743 27522.7
20.5896 27495.2
20.6049 27511.4
20.6202 27482.3
20.6356 27474.7
20.6509 27538.6
20.6662 27515.8
20.6815 27525.3
20.6968 27509.9
20.7121 27453.5
20.7275 27432.5
20.7428 27450.2
20.7581 27399
20.7734 27360.5
20.7887 27364.9
20.804 27355.6
20.8194 27394.8
20.8347 27389.9
20.85 27412.1
20.8653 27404
20.8806 27382.3
20.8959 27360.9
20.9113 27349.3
20.9266 27387
20.9419 27375.9
20.9572 27332.4
20.9725 27340.5
20.9878 27325.3
21.0031 27297.5
21.0185 27341.1
21.0338 27348.5
21.0491 27338.8
21.0644 27326
21.0797 27293.3
21.095 27296.2
21.1104 27316.3
21.1257 27309.3
21.141 27297.2
21.1563 27323
21.1716 27362.4
21.1869 27366.6
21.2023 27352.6
21.2176 27309.4
21.2329 27286.2
21.2482 27296.1
21.2635 27286.2
21.2788 27289.2
21.2942 27302.4
21.3095 27268.7
21.3248 27269.7
21.3401 27302.1
21.3554 27295.2
21.3707 27239.5
21.3861 27274.8
21.4014 27255
21.4167 27246.5
21.432 27309.4
21.4473 27290.7
21.4626 27269.4
21.478 27252.3
21.4933 27255.2
21.5086 27252.9
21.5239 27279.7
21.5392 27322.2
21.5545 27285.4
21.5699 27241.8
21.5852 27247.6
21.6005 27277.2
21.6158 27258.6
21.6311 27197.9
21.6464 27206.4
21.6618 27247.5
21.6771 27267.7
21.6924 27256.6
21.7077 27260.3
21.723 27297.1
21.7383 27292.3
21.7537 27266.7
21.769 27280.3
21.7843 27280.1
21.7996 27287.9
21.8149 27314.1
21.8302 27282.5
21.8455 27280.3
21.8609 27278.7
21.8762 27278.7
21.8915 27293.3
21.9068 27293.3
21.9221 27310.7
21.9374 27300.7
21.9528 27316
21.9681 27307.1
21.9834 27347.8
21.9987 27320.4
22.014 27296.5
22.0293 27362.9
22.0447 27402.2
22.06 27399
22.0753 27400.1
22.0906 27389.8
22.1059 27413.2
22.1212 27443.8
22.1366 27427.3
22.1519 27433.4
22.1672 27419
22.1825 27419.7
22.1978 27453.9
22.2131 27478.2
22.2285 27482.2
22.2438 27456
22.2591 27407.5
22.2744 27402.1
22.2897 27413.1
22.305 27468.9
22.3204 27504.5
22.3357 27533
22.351 27532.3
22.3663 27532.1
22.3816 27552.6
22.3969 27602.4
22.4123 27560.9
22.4276 27516.4
22.4429 27469.4
22.4582 27476.9
22.4735 27548.6
22.4888 27553.2
22.5042 27552.8
22.5195 27580.9
22.5348 27563.9
22.5501 27604.8
22.5654 27583.2
22.5807 27548.5
22.596 27590.5
22.6114 27635.6
22.6267 27627
22.642 27609.6
22.6573 27604.7
22.6726 27596.7
22.6879 27610.2
22.7033 27610.7
22.7186 27602.6
22.7339 27611.2
22.7492 27583.8
22.7645 27563.4
22.7798 27584.6
22.7952 27585.3
22.8105 27637.2
22.8258 27663.8
22.8411 27587.3
22.8564 27593.1
22.8717 27642.6
22.8871 27663.2
22.9024 27662.5
22.9177 27638.5
22.933 27641.8
22.9483 27664.2
22.9636 27697.7
22.979 27665
22.9943 27681.8
