# xPDFsuite Configuration #
[PDF]
wavelength = 0.1
dataformat = QA
inputfile = B3_Bronze-3nm_ss_35.chi
backgroundfile = B3_Li-bkg_ss.chi
mode = xray
bgscale = 0.98705
composition = Ti O2
outputtype = iq
qmaxinst = 23.0
qmin = 0.1
qmax = 23.0
rmax = 30.0
rmin = 0.0
rstep = 0.01
rpoly = 0.9

[Misc]
inputdir = E:/Beamtime/PETRA-III_September-2019/BeamData/processed/Run1/B3/chi/chi_w_sigmas/chi_scaled
savedir = E:/Beamtime/PETRA-III_September-2019/BeamData/processed/Run1/B3
backgroundfilefull = E:/Beamtime/PETRA-III_September-2019/BeamData/processed/Run1/B3/chi/chi_w_sigmas/chi_scaled/B3_Li-bkg_ss.chi

#### start data
#S 1
#L Q($\AA^{-1}$)  intensity(a.u.)
0.111649 0
0.126965 0
0.142282 0
0.157598 0
0.172914 0
0.188231 0
0.203547 0
0.218864 0
0.23418 0
0.249496 0
0.264813 0
0.280129 0
0.295445 0
0.310762 0
0.326078 0
0.341394 0
0.356711 0
0.372027 0
0.387343 0
0.40266 0
0.417976 0
0.433292 0
0.448609 0
0.463925 0
0.479241 0
0.494558 0
0.509874 0
0.525191 0
0.540507 0
0.555823 0
0.57114 0
0.586456 0
0.601772 0
0.617089 0
0.632405 0
0.647721 0
0.663038 0
0.678354 0
0.69367 0
0.708987 0
0.724303 0
0.739619 0
0.754936 0
0.770252 0
0.785568 0
0.800885 0
0.816201 0
0.831518 0
0.846834 0
0.86215 1.32863
0.877467 95390.5
0.892783 94814.6
0.908099 94481.6
0.923416 94574.3
0.938732 94865.8
0.954048 95206.7
0.969365 95380.3
0.984681 95032.6
0.999997 93752.6
1.01531 91693.9
1.03063 88213.9
1.04595 83867
1.06126 78441.3
1.07658 71848.1
1.0919 65172.6
1.10721 57309.4
1.12253 50039.1
1.13784 42545
1.15316 35744.1
1.16848 29662.6
1.18379 23835.2
1.19911 19099.2
1.21443 14790.2
1.22974 11307
1.24506 8490.2
1.26038 6239.81
1.27569 4817.68
1.29101 3938.96
1.30632 3645.77
1.32164 3906.59
1.33696 4639.07
1.35227 5753.43
1.36759 7354.35
1.38291 9149.81
1.39822 11196.6
1.41354 13213
1.42886 15004.5
1.44417 16620
1.45949 17991.6
1.4748 19242.9
1.49012 20577.1
1.50544 22190.4
1.52075 24315.3
1.53607 27361.6
1.55139 31647.9
1.5667 36987.8
1.58202 44228.9
1.59733 52686.2
1.61265 62754.6
1.62797 74273.6
1.64328 86380
1.6586 99949.7
1.67392 112762
1.68923 125536
1.70455 136891
1.71987 146641
1.73518 154901
1.7505 161066
1.76581 166091
1.78113 169017
1.79645 170329
1.81176 169907
1.82708 167918
1.8424 164455
1.85771 160074
1.87303 154782
1.88835 149162
1.90366 143660
1.91898 138431
1.93429 134030
1.94961 130539
1.96493 128091
1.98024 126714
1.99556 125825
2.01088 125269
2.02619 124416
2.04151 122861
2.05683 120273
2.07214 116821
2.08746 112648
2.10277 107731
2.11809 102682
2.13341 97252.8
2.14872 91978.7
2.16404 86943.9
2.17936 82306
2.19467 78472.4
2.20999 75134.3
2.22531 72678.6
2.24062 70703.9
2.25594 69283.3
2.27125 68144.3
2.28657 67116.6
2.30189 66160.7
2.3172 65026.1
2.33252 63795.9
2.34784 62332
2.36315 60893.5
2.37847 59566.8
2.39379 58130.2
2.4091 57172
2.42442 56279.1
2.43973 55997.8
2.45505 55919.4
2.47037 56042
2.48568 56424.5
2.501 56822.6
2.51632 57238.1
2.53163 57537.9
2.54695 57688.7
2.56226 57905.5
2.57758 58169.1
2.5929 58320.1
2.60821 58425.9
2.62353 58385.3
2.63885 58279.5
2.65416 58138.1
2.66948 57985.1
2.6848 57805.8
2.70011 57694.4
2.71543 57723.5
2.73074 57901.2
2.74606 58257
2.76138 58891.1
2.77669 59837.8
2.79201 61215.4
2.80733 62961.2
2.82264 65414.3
2.83796 68610.1
2.85328 72691.1
2.86859 77906.9
2.88391 83951.6
2.89922 91288.6
2.91454 99409.7
2.92986 108335
2.94517 117735
2.96049 127027
2.97581 136268
2.99112 144321
3.00644 151238
3.02176 156175
3.03707 159066
3.05239 159834
3.0677 158536
3.08302 155395
3.09834 150771
3.11365 145132
3.12897 139051
3.14429 133115
3.1596 127624
3.17492 123195
3.19024 119449
3.20555 116848
3.22087 114892
3.23618 113367
3.2515 111974
3.26682 110368
3.28213 108450
3.29745 105904
3.31277 102997
3.32808 99579.8
3.3434 95782.6
3.35872 92040.4
3.37403 88207.6
3.38935 84852.8
3.40466 81772
3.41998 79091.8
3.4353 76825.3
3.45061 74884.4
3.46593 73494
3.48125 72359.9
3.49656 71654
3.51188 71192.9
3.52719 71100.2
3.54251 71366.7
3.55783 71910.9
3.57314 72678.4
3.58846 73691.7
3.60378 74804.5
3.61909 75974.9
3.63441 77135.2
3.64973 78249.3
3.66504 79175.2
3.68036 79905.1
3.69567 80418.7
3.71099 80754.4
3.72631 81023.7
3.74162 81193.5
3.75694 81531
3.77226 81913.6
3.78757 82529.3
3.80289 83373.2
3.81821 84428.5
3.83352 85643.2
3.84884 87046
3.86415 88469.1
3.87947 89798.4
3.89479 90866.9
3.9101 91591.2
3.92542 91889.9
3.94074 91781.8
3.95605 91224
3.97137 90344.1
3.98669 89091.4
4.002 87745.5
4.01732 86363.4
4.03263 85081.8
4.04795 84093.3
4.06327 83458.7
4.07858 83269.4
4.0939 83477.3
4.10922 84036.9
4.12453 84818
4.13985 85769.9
4.15517 86651.4
4.17048 87314.1
4.1858 87692.3
4.20111 87757.4
4.21643 87539.6
4.23175 87000.1
4.24706 86201
4.26238 85212.1
4.2777 84157.7
4.29301 83153
4.30833 82266.7
4.32365 81579.4
4.33896 81168.4
4.35428 80985.3
4.36959 80971.6
4.38491 81143.5
4.40023 81414.6
4.41554 81687.4
4.43086 81876.4
4.44618 81845.7
4.46149 81585.9
4.47681 80978.4
4.49213 80036.8
4.50744 78740.9
4.52276 77217.1
4.53807 75422.1
4.55339 73541.5
4.56871 71479.1
4.58402 69396.4
4.59934 67233
4.61466 65216.4
4.62997 63355.6
4.64529 61649.4
4.6606 60142.6
4.67592 58764.7
4.69124 57607
4.70655 56684.6
4.72187 56017.7
4.73719 55580.7
4.7525 55391.1
4.76782 55451.5
4.78314 55819.1
4.79845 56396.1
4.81377 57262.3
4.82908 58358.7
4.8444 59697.9
4.85972 61213.9
4.87503 62817.1
4.89035 64515.8
4.90567 66268.4
4.92098 68089.7
4.9363 69942.3
4.95162 71822.4
4.96693 73745.6
4.98225 75833.5
4.99756 78277.5
5.01288 80824.2
5.0282 83347.6
5.04351 85854.4
5.05883 87856.8
5.07415 89339.4
5.08946 90201.8
5.10478 90213.3
5.1201 89722.5
5.13541 88430.6
5.15073 86834.1
5.16604 84831.2
5.18136 82783.3
5.19668 80876.8
5.21199 79260.2
5.22731 77899.3
5.24263 76875.8
5.25794 76026.3
5.27326 75429.7
5.28858 75074.1
5.30389 74984.2
5.31921 75226.5
5.33452 75732.7
5.34984 76504
5.36516 77279.8
5.38047 77869
5.39579 77998.3
5.41111 77544.3
5.42642 76450.6
5.44174 74754.6
5.45706 72400
5.47237 69616.3
5.48769 66481
5.503 63273.5
5.51832 60309.5
5.53364 57595.5
5.54895 55426.2
5.56427 53644.2
5.57959 52255.6
5.5949 51187.4
5.61022 50312.5
5.62553 49649.8
5.64085 49024.3
5.65617 48474
5.67148 47982
5.6868 47608.3
5.70212 47251.4
5.71743 46968.5
5.73275 46861.3
5.74807 46878.4
5.76338 47042.4
5.7787 47340.3
5.79401 47824.4
5.80933 48463.4
5.82465 49189.1
5.83996 50001.8
5.85528 50882.6
5.8706 51782.5
5.88591 52685.6
5.90123 53547.8
5.91655 54326.9
5.93186 55007.9
5.94718 55581
5.96249 55959.6
5.97781 56205.1
5.99313 56287.1
6.00844 56236.9
6.02376 56038.2
6.03908 55762.3
6.05439 55449.8
6.06971 55122.7
6.08503 54806.2
6.10034 54531
6.11566 54355.1
6.13097 54217.9
6.14629 54121.5
6.16161 54073
6.17692 54094.7
6.19224 54207.1
6.20756 54361.4
6.22287 54597.7
6.23819 54884.1
6.25351 55185.9
6.26882 55417.8
6.28414 55514.8
6.29945 55428.4
6.31477 55134.8
6.33009 54681.3
6.3454 54111.3
6.36072 53421.1
6.37604 52648.6
6.39135 51876.2
6.40667 51177
6.42199 50591.1
6.4373 50161.2
6.45262 49824.5
6.46793 49618
6.48325 49474.4
6.49857 49406.8
6.51388 49360.4
6.5292 49341
6.54452 49296.5
6.55983 49245.6
6.57515 49226
6.59046 49225.3
6.60578 49297.7
6.6211 49404.7
6.63641 49579.3
6.65173 49756.3
6.66705 50010.1
6.68236 50314.1
6.69768 50691.8
6.713 51131.8
6.72831 51613.4
6.74363 52102
6.75894 52621.9
6.77426 53165.3
6.78958 53710.5
6.80489 54205.7
6.82021 54672.2
6.83553 55073.9
6.85084 55395.8
6.86616 55599.9
6.88148 55722.2
6.89679 55752.4
6.91211 55665.1
6.92742 55510.5
6.94274 55337.1
6.95806 55100.4
6.97337 54833.4
6.98869 54543.6
7.00401 54253.2
7.01932 53953.1
7.03464 53620.8
7.04996 53286.6
7.06527 52962.1
7.08059 52650.8
7.0959 52341.2
7.11122 52014.5
7.12654 51671.4
7.14185 51309.6
7.15717 50958.2
7.17249 50657.6
7.1878 50376.2
7.20312 50121.5
7.21844 49881.3
7.23375 49680.2
7.24907 49477.6
7.26438 49313.5
7.2797 49147.7
7.29502 48987.8
7.31033 48795.3
7.32565 48619.6
7.34097 48462.7
7.35628 48311.9
7.3716 48135.9
7.38692 47989.1
7.40223 47883.7
7.41755 47838.4
7.43286 47877.5
7.44818 47964.7
7.4635 48111.4
7.47881 48284.7
7.49413 48498.7
7.50945 48682.5
7.52476 48853.5
7.54008 48935.5
7.55539 48942.9
7.57071 48865.9
7.58603 48698.8
7.60134 48486.9
7.61666 48206
7.63198 47909
7.64729 47606.7
7.66261 47319.7
7.67793 47123.7
7.69324 47037.6
7.70856 47060.9
7.72387 47209.3
7.73919 47459.9
7.75451 47782.4
7.76982 48141.5
7.78514 48488.8
7.80046 48779.9
7.81577 48964.3
7.83109 48993.7
7.84641 48914
7.86172 48676.9
7.87704 48305.8
7.89235 47834.6
7.90767 47340.3
7.92299 46835.2
7.9383 46354.3
7.95362 45907.5
7.96894 45504.6
7.98425 45117.6
7.99957 44774.6
8.01489 44476.6
8.0302 44181.5
8.04552 43907
8.06083 43650.3
8.07615 43453.4
8.09147 43315.3
8.10678 43246.7
8.1221 43223.2
8.13742 43254.8
8.15273 43321.2
8.16805 43427.9
8.18337 43552.7
8.19868 43726.3
8.214 43928.7
8.22931 44159.2
8.24463 44389.5
8.25995 44566.6
8.27526 44692.4
8.29058 44745.6
8.3059 44754.6
8.32121 44708
8.33653 44630.2
8.35185 44541
8.36716 44415.9
8.38248 44323
8.39779 44208.3
8.41311 44095.6
8.42843 43970.9
8.44374 43861.3
8.45906 43727.3
8.47438 43599.6
8.48969 43453.7
8.50501 43333.6
8.52032 43208.1
8.53564 43084.6
8.55096 42962.1
8.56627 42805.4
8.58159 42680.2
8.59691 42554.4
8.61222 42479.8
8.62754 42411.7
8.64286 42405.1
8.65817 42439.7
8.67349 42524.4
8.6888 42643.3
8.70412 42856.7
8.71944 43182.8
8.73475 43614.2
8.75007 44155.5
8.76539 44809.2
8.7807 45555.5
8.79602 46273.4
8.81134 46942.9
8.82665 47471
8.84197 47890
8.85728 48108.6
8.8726 48191.2
8.88792 48183.8
8.90323 48156.8
8.91855 48162.8
8.93387 48259.4
8.94918 48444.5
8.9645 48619.5
8.97982 48768.6
8.99513 48834
9.01045 48785
9.02576 48546.2
9.04108 48140.6
9.0564 47569
9.07171 46900.6
9.08703 46187.7
9.10235 45435.8
9.11766 44699.1
9.13298 44047.6
9.1483 43464.5
9.16361 42973.2
9.17893 42556.6
9.19424 42187.8
9.20956 41849.4
9.22488 41524.1
9.24019 41245.5
9.25551 41009
9.27083 40807.6
9.28614 40608
9.30146 40425.8
9.31678 40243.3
9.33209 40072.9
9.34741 39941.4
9.36272 39838.8
9.37804 39734.4
9.39336 39667.1
9.40867 39633.4
9.42399 39614.7
9.43931 39670.9
9.45462 39749.6
9.46994 39860.8
9.48525 39970.7
9.50057 40107.3
9.51589 40258.4
9.5312 40401.5
9.54652 40522.7
9.56184 40572.8
9.57715 40544.2
9.59247 40414.8
9.60779 40228.9
9.6231 39978.7
9.63842 39702.7
9.65373 39402.2
9.66905 39130.4
9.68437 38912.1
9.69968 38774.9
9.715 38690.5
9.73032 38631
9.74563 38590.5
9.76095 38571.6
9.77627 38593.2
9.79158 38649.1
9.8069 38728.1
9.82221 38801
9.83753 38863.2
9.85285 38896.3
9.86816 38942.9
9.88348 39011.6
9.8988 39110.4
9.91411 39185.1
9.92943 39290.1
9.94475 39413.2
9.96006 39583.4
9.97538 39763.2
9.99069 39971
10.006 40167.1
10.0213 40399.1
10.0366 40629.4
10.052 40874.7
10.0673 41101.8
10.0826 41323.8
10.0979 41574.9
10.1132 41821.3
10.1285 42114.4
10.1439 42400.4
10.1592 42722.3
10.1745 42962.4
10.1898 43113.7
10.2051 43183
10.2204 43184.6
10.2358 43172.7
10.2511 43179
10.2664 43205.8
10.2817 43301.3
10.297 43464.4
10.3123 43712.4
10.3277 43951.5
10.343 44131.3
10.3583 44209.4
10.3736 44175.8
10.3889 44046.8
10.4042 43859.5
10.4196 43608.2
10.4349 43351.9
10.4502 43050
10.4655 42785.6
10.4808 42576.1
10.4961 42439.1
10.5115 42353
10.5268 42312
10.5421 42326.6
10.5574 42379.8
10.5727 42459.2
10.588 42532.3
10.6033 42586.9
10.6187 42625.6
10.634 42628.5
10.6493 42586.4
10.6646 42486.3
10.6799 42336.1
10.6952 42152.4
10.7106 41984.7
10.7259 41818
10.7412 41685.4
10.7565 41592.5
10.7718 41551.4
10.7871 41539
10.8025 41520.6
10.8178 41530.9
10.8331 41535.7
10.8484 41480.6
10.8637 41364.1
10.879 41185.6
10.8944 40953.6
10.9097 40673.7
10.925 40405.2
10.9403 40110.3
10.9556 39861.9
10.9709 39619.8
10.9863 39423.1
11.0016 39230.5
11.0169 39045.5
11.0322 38838.1
11.0475 38631.4
11.0628 38424.7
11.0782 38209.9
11.0935 38001.8
11.1088 37792
11.1241 37586.2
11.1394 37399.1
11.1547 37232.6
11.1701 37058.6
11.1854 36914.6
11.2007 36772.4
11.216 36632
11.2313 36509
11.2466 36372.2
11.262 36264.6
11.2773 36184.1
11.2926 36144.2
11.3079 36101.9
11.3232 36062
11.3385 36013.9
11.3538 35954.6
11.3692 35886.4
11.3845 35859
11.3998 35839
11.4151 35813.6
11.4304 35805.9
11.4457 35801.2
11.4611 35815.3
11.4764 35816.9
11.4917 35839.2
11.507 35878.1
11.5223 35953.2
11.5376 36004.8
11.553 36026.9
11.5683 36063.9
11.5836 36092.2
11.5989 36090
11.6142 36095.7
11.6295 36084.5
11.6449 36055.7
11.6602 35992.2
11.6755 35914
11.6908 35832.7
11.7061 35784.9
11.7214 35753.7
11.7368 35762.5
11.7521 35785.5
11.7674 35830.3
11.7827 35848.8
11.798 35877.4
11.8133 35881.6
11.8287 35859.2
11.844 35823.5
11.8593 35784.6
11.8746 35751.4
11.8899 35736.2
11.9052 35682.7
11.9206 35661.1
11.9359 35660.5
11.9512 35676.8
11.9665 35689.6
11.9818 35720.5
11.9971 35733.7
12.0125 35737.1
12.0278 35734.3
12.0431 35718.1
12.0584 35708
12.0737 35692.6
12.089 35648.1
12.1044 35599.5
12.1197 35555.2
12.135 35563.5
12.1503 35566.3
12.1656 35546.9
12.1809 35519.1
12.1962 35489.8
12.2116 35439.3
12.2269 35423.6
12.2422 35404.7
12.2575 35386.5
12.2728 35349
12.2881 35342.8
12.3035 35349.3
12.3188 35352.4
12.3341 35332.7
12.3494 35311.1
12.3647 35281.5
12.38 35249.9
12.3954 35215
12.4107 35181.8
12.426 35142.5
12.4413 35107.9
12.4566 35101.5
12.4719 35086.7
12.4873 35047.4
12.5026 35002.3
12.5179 34962.1
12.5332 34924.8
12.5485 34888.4
12.5638 34865.7
12.5792 34856.2
12.5945 34860.8
12.6098 34844.5
12.6251 34840.6
12.6404 34852.8
12.6557 34842.2
12.6711 34863.9
12.6864 34881.1
12.7017 34892.1
12.717 34908.8
12.7323 34908.9
12.7476 34916.8
12.763 34954.4
12.7783 35014.3
12.7936 35100.1
12.8089 35186
12.8242 35270.5
12.8395 35317.2
12.8549 35348.5
12.8702 35337.9
12.8855 35280.7
12.9008 35213.3
12.9161 35137.3
12.9314 35063.8
12.9467 34961.4
12.9621 34895.7
12.9774 34842.8
12.9927 34809.7
13.008 34803.1
13.0233 34804.9
13.0386 34807
13.054 34797.9
13.0693 34779.7
13.0846 34759.5
13.0999 34751.7
13.1152 34730.6
13.1305 34706.8
13.1459 34692.9
13.1612 34658
13.1765 34630.9
13.1918 34636.1
13.2071 34664
13.2224 34708.6
13.2378 34717.3
13.2531 34725.5
13.2684 34752.3
13.2837 34757.6
13.299 34774.5
13.3143 34823.8
13.3297 34863.9
13.345 34899.7
13.3603 34984.8
13.3756 35106.7
13.3909 35245.8
13.4062 35395.1
13.4216 35588.1
13.4369 35794.2
13.4522 35974.5
13.4675 36160
13.4828 36328.7
13.4981 36464.6
13.5135 36550.6
13.5288 36579.3
13.5441 36629.9
13.5594 36705.8
13.5747 36763.1
13.59 36776.8
13.6054 36753.7
13.6207 36668.3
13.636 36519.2
13.6513 36337.7
13.6666 36152.7
13.6819 35971.1
13.6973 35778.1
13.7126 35589
13.7279 35439.4
13.7432 35306.9
13.7585 35199.7
13.7738 35101
13.7891 35040.6
13.8045 34975
13.8198 34895
13.8351 34853.6
13.8504 34852.7
13.8657 34836.7
13.881 34823.5
13.8964 34829.8
13.9117 34854.6
13.927 34877.6
13.9423 34889.6
13.9576 34930.1
13.9729 34916.7
13.9883 34866.6
14.0036 34801.9
14.0189 34710.9
14.0342 34589.5
14.0495 34463
14.0648 34312.7
14.0802 34171
14.0955 34018.7
14.1108 33889.5
14.1261 33752.9
14.1414 33657
14.1567 33571.3
14.1721 33502.2
14.1874 33453.5
14.2027 33405.2
14.218 33369.9
14.2333 33323.8
14.2486 33283.3
14.264 33253.4
14.2793 33230.5
14.2946 33165.7
14.3099 33117.1
14.3252 33086.5
14.3405 33072
14.3559 33064.5
14.3712 33033.8
14.3865 33017
14.4018 32982.9
14.4171 32957.4
14.4324 32919.5
14.4478 32880.5
14.4631 32850.8
14.4784 32868
14.4937 32906.2
14.509 32916.6
14.5243 32922.6
14.5397 32917.3
14.555 32908.3
14.5703 32934.8
14.5856 32965.5
14.6009 32967.8
14.6162 32942.2
14.6315 32886.7
14.6469 32838.8
14.6622 32825.5
14.6775 32800
14.6928 32758.3
14.7081 32696.2
14.7234 32668.9
14.7388 32637
14.7541 32591.1
14.7694 32533
14.7847 32481.4
14.8 32432.7
14.8153 32393.8
14.8307 32347.4
14.846 32311.4
14.8613 32269.5
14.8766 32218.3
14.8919 32166.1
14.9072 32110.1
14.9226 32078.5
14.9379 32043.5
14.9532 31993.4
14.9685 31987.3
14.9838 31991.9
14.9991 31986.9
15.0145 31974.6
15.0298 31971.8
15.0451 31959.2
15.0604 31951.9
15.0757 31958.7
15.091 31940.2
15.1064 31944.5
15.1217 31965
15.137 31958.9
15.1523 31944.1
15.1676 31953.7
15.1829 31968.5
15.1983 31978.7
15.2136 32000.1
15.2289 32030.9
15.2442 32085.2
15.2595 32137.9
15.2748 32183.6
15.2902 32208.8
15.3055 32220.5
15.3208 32251.4
15.3361 32300.2
15.3514 32339.3
15.3667 32364.1
15.382 32376
15.3974 32373.9
15.4127 32376.4
15.428 32380.9
15.4433 32379.8
15.4586 32342.3
15.4739 32276.8
15.4893 32210.3
15.5046 32171.4
15.5199 32145.2
15.5352 32124.5
15.5505 32089.6
15.5658 32047.8
15.5812 32018.4
15.5965 32020.2
15.6118 31996.7
15.6271 31963.2
15.6424 31943.9
15.6577 31929.9
15.6731 31936.3
15.6884 31936
15.7037 31932.3
15.719 31897.3
15.7343 31841.8
15.7496 31788.9
15.765 31750.9
15.7803 31732.4
15.7956 31693.5
15.8109 31647.3
15.8262 31624.7
15.8415 31614
15.8569 31551.3
15.8722 31473.3
15.8875 31399.9
15.9028 31360.6
15.9181 31343.3
15.9334 31288
15.9488 31248
15.9641 31224.3
15.9794 31196.6
15.9947 31161.2
16.01 31110.1
16.0253 31104.2
16.0407 31098.1
16.056 31064.3
16.0713 31048.6
16.0866 31035.5
16.1019 31026.5
16.1172 30991.8
16.1326 30955.4
16.1479 30944.4
16.1632 30961.8
16.1785 30979.6
16.1938 30991.4
16.2091 30978.6
16.2244 30963.9
16.2398 30925.2
16.2551 30940.4
16.2704 30963
16.2857 30949.9
16.301 30932.6
16.3163 30936.6
16.3317 30932.1
16.347 30927.6
16.3623 30914.7
16.3776 30906.8
16.3929 30883.1
16.4082 30878.4
16.4236 30895.9
16.4389 30866.7
16.4542 30795.3
16.4695 30710.5
16.4848 30669.7
16.5001 30673.5
16.5155 30673.1
16.5308 30671.6
16.5461 30644
16.5614 30599.6
16.5767 30528.5
16.592 30471.1
16.6074 30437.6
16.6227 30423.2
16.638 30409.1
16.6533 30421.6
16.6686 30400
16.6839 30374.8
16.6993 30353.4
16.7146 30323.7
16.7299 30292.4
16.7452 30285.5
16.7605 30291.1
16.7758 30255.3
16.7912 30233.1
16.8065 30216.6
16.8218 30191.6
16.8371 30180.8
16.8524 30124
16.8677 30110.4
16.8831 30141.9
16.8984 30171.2
16.9137 30126.9
16.929 30074.4
16.9443 30080.5
16.9596 30092.9
16.9749 30091.2
16.9903 30069
17.0056 30028.1
17.0209 29982.9
17.0362 29953.3
17.0515 29943.3
17.0668 29906.5
17.0822 29901.2
17.0975 29909.4
17.1128 29856.2
17.1281 29804.8
17.1434 29774
17.1587 29742.3
17.1741 29729.5
17.1894 29709.5
17.2047 29680.9
17.22 29671.1
17.2353 29648
17.2506 29634.1
17.266 29618.5
17.2813 29617.4
17.2966 29632.6
17.3119 29613.7
17.3272 29571
17.3425 29544.4
17.3579 29531
17.3732 29504.6
17.3885 29510.8
17.4038 29542
17.4191 29557.2
17.4344 29536.7
17.4498 29519.9
17.4651 29532.1
17.4804 29551.4
17.4957 29547.5
17.511 29532.1
17.5263 29528.6
17.5417 29489.5
17.557 29455.1
17.5723 29486
17.5876 29485.7
17.6029 29511.2
17.6182 29542.8
17.6336 29550.5
17.6489 29568.6
17.6642 29584.5
17.6795 29561.2
17.6948 29543
17.7101 29514.3
17.7255 29513.3
17.7408 29522.1
17.7561 29494.1
17.7714 29468.6
17.7867 29456.9
17.802 29450.2
17.8173 29416.2
17.8327 29387.2
17.848 29374
17.8633 29398.5
17.8786 29386.9
17.8939 29351.5
17.9092 29350
17.9246 29345.1
17.9399 29346
17.9552 29335.3
17.9705 29324.5
17.9858 29301.3
18.0011 29277.6
18.0165 29295.5
18.0318 29278.1
18.0471 29248.7
18.0624 29235.9
18.0777 29199.6
18.093 29209.8
18.1084 29221.8
18.1237 29231.2
18.139 29226.8
18.1543 29201.5
18.1696 29181.1
18.1849 29164.9
18.2003 29158.4
18.2156 29186.9
18.2309 29154.8
18.2462 29109.1
18.2615 29109.2
18.2768 29104.6
18.2922 29090.3
18.3075 29119.1
18.3228 29130.3
18.3381 29129.6
18.3534 29171.4
18.3687 29204.2
18.3841 29248.8
18.3994 29303.5
18.4147 29312.7
18.43 29295.8
18.4453 29224.9
18.4606 29181.1
18.476 29191
18.4913 29199.9
18.5066 29164.7
18.5219 29130.7
18.5372 29099.6
18.5525 29071.8
18.5679 29042.8
18.5832 29046.4
18.5985 29042.3
18.6138 29021.6
18.6291 28989.6
18.6444 28945.1
18.6597 28929.2
18.6751 28891.2
18.6904 28892.2
18.7057 28894.1
18.721 28856.1
18.7363 28826.6
18.7516 28824.5
18.767 28835.4
18.7823 28783.9
18.7976 28708.7
18.8129 28693.6
18.8282 28706.1
18.8435 28703.5
18.8589 28665.7
18.8742 28628.3
18.8895 28593.1
18.9048 28555.9
18.9201 28515.7
18.9354 28511.8
18.9508 28534.8
18.9661 28512.3
18.9814 28465.2
18.9967 28411.4
19.012 28378.4
19.0273 28378.6
19.0427 28389
19.058 28384.7
19.0733 28381.1
19.0886 28347.6
19.1039 28303.4
19.1192 28272.4
19.1346 28249.3
19.1499 28237.4
19.1652 28250.9
19.1805 28263.2
19.1958 28290.2
19.2111 28266
19.2265 28254.1
19.2418 28286.2
19.2571 28258.7
19.2724 28201.2
19.2877 28191.9
19.303 28176.5
19.3184 28137.7
19.3337 28097.2
19.349 28096.9
19.3643 28078.3
19.3796 28044.1
19.3949 28020.5
19.4102 27992.6
19.4256 27985.6
19.4409 27959.4
19.4562 27941.5
19.4715 27944.6
19.4868 27924.1
19.5021 27878.3
19.5175 27883.7
19.5328 27892
19.5481 27841.3
19.5634 27821.9
19.5787 27800.2
19.594 27787.5
19.6094 27786.8
19.6247 27756.8
19.64 27748.1
19.6553 27777
19.6706 27765.7
19.6859 27739.5
19.7013 27759.4
19.7166 27738.4
19.7319 27698.2
19.7472 27645.3
19.7625 27620.5
19.7778 27626.4
19.7932 27618.5
19.8085 27603
19.8238 27622
19.8391 27612.5
19.8544 27578
19.8697 27570.9
19.8851 27581
19.9004 27563.3
19.9157 27527.3
19.931 27524.8
19.9463 27517.2
19.9616 27549.5
19.977 27569.1
19.9923 27527
20.0076 27495.8
20.0229 27484.4
20.0382 27480.7
20.0535 27453
20.0689 27422.3
20.0842 27393.9
20.0995 27386.4
20.1148 27392.5
20.1301 27403.1
20.1454 27387
20.1608 27417.9
20.1761 27426.5
20.1914 27394.9
20.2067 27374.5
20.222 27362.6
20.2373 27389.2
20.2526 27433.3
20.268 27432.8
20.2833 27416.6
20.2986 27394.2
20.3139 27374.2
20.3292 27359.9
20.3445 27364.6
20.3599 27339
20.3752 27317
20.3905 27343.1
20.4058 27362.2
20.4211 27394.3
20.4364 27399.2
20.4518 27420.6
20.4671 27395.6
20.4824 27394.7
20.4977 27375.7
20.513 27384.4
20.5283 27418.4
20.5437 27388
20.559 27371.1
20.5743 27340.3
20.5896 27330.9
20.6049 27323.5
20.6202 27292.8
20.6356 27274.5
20.6509 27293.9
20.6662 27271.8
20.6815 27286.4
20.6968 27281.9
20.7121 27239.6
20.7275 27231.6
20.7428 27271.3
20.7581 27266.7
20.7734 27252.5
20.7887 27246.1
20.804 27239.4
20.8194 27241.6
20.8347 27213.4
20.85 27192.2
20.8653 27183.4
20.8806 27159.9
20.8959 27163.1
20.9113 27179.5
20.9266 27217
20.9419 27232.7
20.9572 27212
20.9725 27187.7
20.9878 27185.3
21.0031 27158.3
21.0185 27193
21.0338 27173
21.0491 27129.9
21.0644 27130
21.0797 27141.8
21.095 27166
21.1104 27164.2
21.1257 27148.6
21.141 27158
21.1563 27144.5
21.1716 27150.9
21.1869 27147.7
21.2023 27149.3
21.2176 27150.8
21.2329 27119
21.2482 27083.8
21.2635 27054.3
21.2788 27074.7
21.2942 27096.9
21.3095 27029.8
21.3248 27075.2
21.3401 27114.7
21.3554 27102.1
21.3707 27056.9
21.3861 27084.6
21.4014 27062.7
21.4167 27063.9
21.432 27067.3
21.4473 27037.5
21.4626 26982.6
21.478 26978.8
21.4933 27051.3
21.5086 27068.2
21.5239 27060.4
21.5392 27072.8
21.5545 27040
21.5699 27042.9
21.5852 27067.6
21.6005 27083.5
21.6158 27087
21.6311 27066.3
21.6464 27055.6
21.6618 27043.2
21.6771 27070.1
21.6924 27099
21.7077 27054.4
21.723 27021.7
21.7383 27013.7
21.7537 27052.2
21.769 27084.6
21.7843 27093
21.7996 27051.5
21.8149 27090.8
21.8302 27100.9
21.8455 27069.5
21.8609 27042.1
21.8762 27052.3
21.8915 27092.8
21.9068 27073.3
21.9221 27074.3
21.9374 27123
21.9528 27153.1
21.9681 27124.9
21.9834 27136.7
21.9987 27146
22.014 27112.8
22.0293 27145
22.0447 27178.4
22.06 27194.5
22.0753 27193.9
22.0906 27163.9
22.1059 27159.8
22.1212 27189.7
22.1366 27215.9
22.1519 27282.1
22.1672 27311.6
22.1825 27275.3
22.1978 27275.8
22.2131 27267.7
22.2285 27270.1
22.2438 27251.7
22.2591 27236.4
22.2744 27229.6
22.2897 27201.3
22.305 27225.6
22.3204 27289.6
22.3357 27323.9
22.351 27330
22.3663 27307.9
22.3816 27374.1
22.3969 27393
22.4123 27339.3
22.4276 27344.3
22.4429 27323.8
22.4582 27305.9
22.4735 27337.9
22.4888 27344
22.5042 27374.7
22.5195 27382.3
22.5348 27350.3
22.5501 27383.8
22.5654 27377.4
22.5807 27379.7
22.596 27369.6
22.6114 27428.4
22.6267 27401.8
22.642 27400.2
22.6573 27418.3
22.6726 27393.5
22.6879 27414
22.7033 27412
22.7186 27449.5
22.7339 27480.5
22.7492 27435.7
22.7645 27435.8
22.7798 27439.1
22.7952 27451.9
22.8105 27451.6
22.8258 27442.2
22.8411 27403.7
22.8564 27436.1
22.8717 27479.5
22.8871 27508.6
22.9024 27546.9
22.9177 27527
22.933 27530.5
22.9483 27564.1
22.9636 27626.4
22.979 27592.9
22.9943 27594
