# xPDFsuite Configuration #
[PDF]
wavelength = 0.1
dataformat = QA
inputfile = B3_Bronze-3nm_ss_37.chi
backgroundfile = B3_Li-bkg_ss.chi
mode = xray
bgscale = 0.98705
composition = Ti O2
outputtype = iq
qmaxinst = 23.0
qmin = 0.1
qmax = 23.0
rmax = 30.0
rmin = 0.0
rstep = 0.01
rpoly = 0.9

[Misc]
inputdir = E:/Beamtime/PETRA-III_September-2019/BeamData/processed/Run1/B3/chi/chi_w_sigmas/chi_scaled
savedir = E:/Beamtime/PETRA-III_September-2019/BeamData/processed/Run1/B3
backgroundfilefull = E:/Beamtime/PETRA-III_September-2019/BeamData/processed/Run1/B3/chi/chi_w_sigmas/chi_scaled/B3_Li-bkg_ss.chi

#### start data
#S 1
#L Q($\AA^{-1}$)  intensity(a.u.)
0.111649 0
0.126965 0
0.142282 0
0.157598 0
0.172914 0
0.188231 0
0.203547 0
0.218864 0
0.23418 0
0.249496 0
0.264813 0
0.280129 0
0.295445 0
0.310762 0
0.326078 0
0.341394 0
0.356711 0
0.372027 0
0.387343 0
0.40266 0
0.417976 0
0.433292 0
0.448609 0
0.463925 0
0.479241 0
0.494558 0
0.509874 0
0.525191 0
0.540507 0
0.555823 0
0.57114 0
0.586456 0
0.601772 0
0.617089 0
0.632405 0
0.647721 0
0.663038 0
0.678354 0
0.69367 0
0.708987 0
0.724303 0
0.739619 0
0.754936 0
0.770252 0
0.785568 0
0.800885 0
0.816201 0
0.831518 0
0.846834 0
0.86215 1.3462
0.877467 96652
0.892783 96801.8
0.908099 96353.9
0.923416 96304.1
0.938732 96500.8
0.954048 96834.2
0.969365 97015.7
0.984681 96729.9
0.999997 95540.5
1.01531 93677.1
1.03063 90415.2
1.04595 86265.5
1.06126 80880
1.07658 74528.8
1.0919 67823.1
1.10721 60209.5
1.12253 52910
1.13784 45420
1.15316 38326
1.16848 31826.8
1.18379 25477.7
1.19911 20424
1.21443 15925.5
1.22974 12260.8
1.24506 9289.68
1.26038 6971.49
1.27569 5365.69
1.29101 4276.61
1.30632 3934.27
1.32164 4059.82
1.33696 4808.11
1.35227 6065.79
1.36759 7775.42
1.38291 9591.66
1.39822 11576.6
1.41354 13418.6
1.42886 15171.2
1.44417 16690.8
1.45949 17953.5
1.4748 19080.6
1.49012 20334.3
1.50544 21913.3
1.52075 24162
1.53607 27261.6
1.55139 31528.9
1.5667 36786.2
1.58202 43946.1
1.59733 52207.2
1.61265 62247.6
1.62797 73977.6
1.64328 86646.4
1.6586 100873
1.67392 114769
1.68923 128826
1.70455 141693
1.71987 153007
1.73518 162957
1.7505 170669
1.76581 177257
1.78113 181282
1.79645 183279
1.81176 183232
1.82708 181223
1.8424 177223
1.85771 172047
1.87303 165810
1.88835 159201
1.90366 152755
1.91898 146722
1.93429 141660
1.94961 137579
1.96493 134653
1.98024 132944
1.99556 131965
2.01088 131572
2.02619 130844
2.04151 129362
2.05683 126754
2.07214 123225
2.08746 118916
2.10277 113726
2.11809 108377
2.13341 102474
2.14872 96791.7
2.16404 91201.2
2.17936 86078.3
2.19467 81651
2.20999 77844.6
2.22531 74959
2.24062 72650.9
2.25594 70826.6
2.27125 69521.5
2.28657 68363.5
2.30189 67402.7
2.3172 66237.6
2.33252 64983.3
2.34784 63507
2.36315 61961.3
2.37847 60541.4
2.39379 58998.7
2.4091 58023.9
2.42442 57019.8
2.43973 56639.4
2.45505 56564.1
2.47037 56742.9
2.48568 57140.4
2.501 57648.3
2.51632 58299.1
2.53163 58735.1
2.54695 58994.3
2.56226 59168.1
2.57758 59327.9
2.5929 59455.2
2.60821 59436.6
2.62353 59192.8
2.63885 58769.8
2.65416 58242.7
2.66948 57718.6
2.6848 57227.4
2.70011 56747.1
2.71543 56312.2
2.73074 56048.6
2.74606 55973.1
2.76138 56151.1
2.77669 56698.4
2.79201 57693.6
2.80733 59219.2
2.82264 61391.8
2.83796 64360
2.85328 68126.7
2.86859 73026
2.88391 78722.7
2.89922 85735.6
2.91454 93526.7
2.92986 102106
2.94517 111180
2.96049 120288
2.97581 129480
2.99112 137628
3.00644 144934
3.02176 150432
3.03707 154038
3.05239 155577
3.0677 154954
3.08302 152359
3.09834 148059
3.11365 142722
3.12897 136704
3.14429 130721
3.1596 125115
3.17492 120632
3.19024 116914
3.20555 114483
3.22087 112857
3.23618 111933
3.2515 111366
3.26682 110775
3.28213 110013
3.29745 108634
3.31277 106747
3.32808 104126
3.3434 100951
3.35872 97566.2
3.37403 93802.5
3.38935 90243.4
3.40466 86736.7
3.41998 83642.6
3.4353 80900.5
3.45061 78495.7
3.46593 76635.1
3.48125 75113.3
3.49656 74018.1
3.51188 73227.9
3.52719 72863.9
3.54251 72956.3
3.55783 73434.4
3.57314 74252.9
3.58846 75341.9
3.60378 76611.6
3.61909 78083.1
3.63441 79598
3.64973 81078.4
3.66504 82329.8
3.68036 83344.3
3.69567 83984.1
3.71099 84336.4
3.72631 84487.8
3.74162 84427.8
3.75694 84378.7
3.77226 84254.7
3.78757 84299.3
3.80289 84597.6
3.81821 85263.3
3.83352 86260.8
3.84884 87621
3.86415 89107.6
3.87947 90672
3.89479 92086.2
3.9101 93189.7
3.92542 93976.9
3.94074 94272.6
3.95605 94105.1
3.97137 93408
3.98669 92270.6
4.002 90865.9
4.01732 89364.8
4.03263 87869.2
4.04795 86642
4.06327 85690.6
4.07858 85119.5
4.0939 84899.8
4.10922 85103.2
4.12453 85658
4.13985 86507.6
4.15517 87322.8
4.17048 87998.2
4.1858 88382.7
4.20111 88412.4
4.21643 88152.4
4.23175 87557.2
4.24706 86666.6
4.26238 85557.4
4.2777 84325.6
4.29301 83055.9
4.30833 81854.3
4.32365 80857.6
4.33896 80123.4
4.35428 79654.3
4.36959 79390
4.38491 79420.5
4.40023 79606.9
4.41554 79906.8
4.43086 80263.1
4.44618 80502
4.46149 80582.9
4.47681 80393.2
4.49213 79976.8
4.50744 79253.7
4.52276 78279.1
4.53807 76990.2
4.55339 75457.6
4.56871 73687.9
4.58402 71814.5
4.59934 69851.6
4.61466 67915.6
4.62997 66018.4
4.64529 64217.2
4.6606 62548.6
4.67592 61032.9
4.69124 59661.6
4.70655 58453.2
4.72187 57498.5
4.73719 56828.5
4.7525 56434.6
4.76782 56303.9
4.78314 56496.1
4.79845 56930.1
4.81377 57645
4.82908 58635.1
4.8444 59933.2
4.85972 61489.1
4.87503 63209.9
4.89035 65058.5
4.90567 66957.7
4.92098 68878.6
4.9363 70838.5
4.95162 72856.2
4.96693 74926.7
4.98225 77154
4.99756 79681.7
5.01288 82304.1
5.0282 84814.5
5.04351 87330.6
5.05883 89244.4
5.07415 90716.7
5.08946 91470
5.10478 91440.7
5.1201 90826
5.13541 89491.3
5.15073 87798.4
5.16604 85804.3
5.18136 83695.4
5.19668 81780.1
5.21199 80134.1
5.22731 78806.2
5.24263 77748.9
5.25794 76832.1
5.27326 76134.1
5.28858 75721
5.30389 75639.3
5.31921 75964.2
5.33452 76584.6
5.34984 77467.5
5.36516 78343.2
5.38047 79101.8
5.39579 79358.1
5.41111 79051.7
5.42642 78019.2
5.44174 76379
5.45706 74086.9
5.47237 71328
5.48769 68190.7
5.503 65000.9
5.51832 62028.4
5.53364 59254.4
5.54895 57008.5
5.56427 55137.8
5.57959 53631
5.5949 52414.3
5.61022 51412.4
5.62553 50610.3
5.64085 49823.8
5.65617 49173.5
5.67148 48603.2
5.6868 48180
5.70212 47840.9
5.71743 47583.1
5.73275 47462
5.74807 47441.9
5.76338 47560.4
5.7787 47797.4
5.79401 48214.2
5.80933 48864
5.82465 49641
5.83996 50561.6
5.85528 51493.4
5.8706 52508.2
5.88591 53511.1
5.90123 54449.9
5.91655 55291.6
5.93186 56067.4
5.94718 56681.6
5.96249 57079.4
5.97781 57307.1
5.99313 57314.3
6.00844 57207.7
6.02376 56950.7
6.03908 56667.2
6.05439 56295.6
6.06971 55939.4
6.08503 55625.1
6.10034 55403.3
6.11566 55249.1
6.13097 55169.3
6.14629 55109.3
6.16161 55118.1
6.17692 55176.6
6.19224 55312
6.20756 55434.2
6.22287 55666.9
6.23819 55939.6
6.25351 56213.6
6.26882 56411.1
6.28414 56510.3
6.29945 56413.2
6.31477 56090
6.33009 55565.2
6.3454 54884.8
6.36072 54087.7
6.37604 53231.1
6.39135 52379.2
6.40667 51643.5
6.42199 50987.6
6.4373 50505.8
6.45262 50102.3
6.46793 49899.3
6.48325 49749
6.49857 49696.6
6.51388 49680.3
6.5292 49717.3
6.54452 49716.8
6.55983 49685.5
6.57515 49638.7
6.59046 49572.4
6.60578 49590.4
6.6211 49629.8
6.63641 49764.3
6.65173 49914.9
6.66705 50131.2
6.68236 50373.6
6.69768 50706.5
6.713 51107.6
6.72831 51591.7
6.74363 52118.5
6.75894 52705.1
6.77426 53321.1
6.78958 54006.4
6.80489 54630.9
6.82021 55163.2
6.83553 55624.5
6.85084 56009.6
6.86616 56312.6
6.88148 56524.4
6.89679 56655.8
6.91211 56697.5
6.92742 56615.6
6.94274 56473.6
6.95806 56260.7
6.97337 56040.5
6.98869 55813.6
7.00401 55561.6
7.01932 55254.5
7.03464 54903.7
7.04996 54545.7
7.06527 54148
7.08059 53762.1
7.0959 53329.2
7.11122 52887.6
7.12654 52384.3
7.14185 51929.9
7.15717 51545.7
7.17249 51180.3
7.1878 50817.1
7.20312 50486.3
7.21844 50217.7
7.23375 49991.4
7.24907 49805.2
7.26438 49692.1
7.2797 49568.8
7.29502 49479
7.31033 49328.7
7.32565 49205.8
7.34097 49068.2
7.35628 48897.2
7.3716 48695.1
7.38692 48487.6
7.40223 48364.8
7.41755 48346.7
7.43286 48442.6
7.44818 48549.4
7.4635 48696.1
7.47881 48903.8
7.49413 49196.8
7.50945 49467.4
7.52476 49669.5
7.54008 49822.5
7.55539 49929.9
7.57071 49932
7.58603 49817.1
7.60134 49625.2
7.61666 49362.8
7.63198 49063.1
7.64729 48735.6
7.66261 48447
7.67793 48207.2
7.69324 48070
7.70856 48004.9
7.72387 48120.2
7.73919 48325.8
7.75451 48629.5
7.76982 48967.4
7.78514 49333.8
7.80046 49633.9
7.81577 49831.9
7.83109 49941
7.84641 49901.4
7.86172 49739.2
7.87704 49437.4
7.89235 49029.5
7.90767 48569.2
7.92299 48115.4
7.9383 47646.9
7.95362 47173.1
7.96894 46716.1
7.98425 46303.1
7.99957 45978.6
8.01489 45641.2
8.0302 45288.1
8.04552 44915.5
8.06083 44597.2
8.07615 44304.3
8.09147 44106.3
8.10678 43943.8
8.1221 43883.5
8.13742 43877.9
8.15273 43941.1
8.16805 44082.7
8.18337 44274.1
8.19868 44477
8.214 44694.3
8.22931 44931.2
8.24463 45180.2
8.25995 45350.7
8.27526 45500.4
8.29058 45593.7
8.3059 45653.3
8.32121 45677
8.33653 45657.5
8.35185 45615.1
8.36716 45506
8.38248 45385.4
8.39779 45243.7
8.41311 45076.3
8.42843 44927.7
8.44374 44819.7
8.45906 44717.7
8.47438 44594.3
8.48969 44435.1
8.50501 44280.3
8.52032 44132.2
8.53564 43972.7
8.55096 43788.2
8.56627 43586.3
8.58159 43408.3
8.59691 43257.7
8.61222 43136.8
8.62754 43036.3
8.64286 42976
8.65817 42938.2
8.67349 42936.5
8.6888 42977
8.70412 43085.4
8.71944 43342.6
8.73475 43793.6
8.75007 44350.3
8.76539 45055.9
8.7807 45840.2
8.79602 46632.3
8.81134 47322.6
8.82665 47890.7
8.84197 48341.5
8.85728 48642.6
8.8726 48822.6
8.88792 48880.7
8.90323 48922.5
8.91855 48975.4
8.93387 49086.3
8.94918 49288.4
8.9645 49512.8
8.97982 49711
8.99513 49809.6
9.01045 49798.3
9.02576 49592.7
9.04108 49152.1
9.0564 48573.9
9.07171 47889.3
9.08703 47166.5
9.10235 46385.2
9.11766 45637.8
9.13298 45007.7
9.1483 44452.7
9.16361 43936.8
9.17893 43488.6
9.19424 43083.9
9.20956 42701.3
9.22488 42356.3
9.24019 42071.3
9.25551 41802.7
9.27083 41562.6
9.28614 41340.2
9.30146 41139.2
9.31678 40988
9.33209 40808.9
9.34741 40661.1
9.36272 40495.4
9.37804 40378.3
9.39336 40306.2
9.40867 40258.7
9.42399 40239.1
9.43931 40267.1
9.45462 40318.1
9.46994 40403.2
9.48525 40525.1
9.50057 40686.9
9.51589 40862.8
9.5312 41039.1
9.54652 41195.8
9.56184 41259.4
9.57715 41254
9.59247 41117.9
9.60779 40903.2
9.6231 40607.5
9.63842 40328.4
9.65373 40022.8
9.66905 39771.1
9.68437 39572
9.69968 39410.7
9.715 39260.3
9.73032 39139.4
9.74563 39066.5
9.76095 39036.4
9.77627 39051.5
9.79158 39109.3
9.8069 39217.1
9.82221 39295.1
9.83753 39331.4
9.85285 39335.1
9.86816 39340.4
9.88348 39342.5
9.8988 39369
9.91411 39419.4
9.92943 39544.5
9.94475 39740
9.96006 39948.4
9.97538 40162.1
9.99069 40384.2
10.006 40612.1
10.0213 40870.6
10.0366 41115.8
10.052 41372.5
10.0673 41616.9
10.0826 41847.6
10.0979 42117.9
10.1132 42378.4
10.1285 42705.2
10.1439 43018.1
10.1592 43340.9
10.1745 43585.7
10.1898 43733
10.2051 43803.8
10.2204 43796.3
10.2358 43771.5
10.2511 43791.1
10.2664 43845.5
10.2817 43948
10.297 44101.1
10.3123 44343.9
10.3277 44600.2
10.343 44814.1
10.3583 44901.8
10.3736 44872.1
10.3889 44793
10.4042 44628.4
10.4196 44378.8
10.4349 44082.9
10.4502 43778
10.4655 43550.3
10.4808 43368.8
10.4961 43252.8
10.5115 43196.4
10.5268 43176.9
10.5421 43189.7
10.5574 43253.8
10.5727 43334.7
10.588 43408.3
10.6033 43484.8
10.6187 43529.6
10.634 43557.6
10.6493 43537.1
10.6646 43472.5
10.6799 43330.6
10.6952 43151.5
10.7106 42964.1
10.7259 42780
10.7412 42647.2
10.7565 42566.5
10.7718 42530.1
10.7871 42511.7
10.8025 42492.9
10.8178 42516
10.8331 42471.8
10.8484 42387.8
10.8637 42216.8
10.879 41997.5
10.8944 41744.4
10.9097 41487.7
10.925 41214.4
10.9403 40947
10.9556 40703.1
10.9709 40483.5
10.9863 40263.1
11.0016 40040.6
11.0169 39849.6
11.0322 39689.9
11.0475 39527.7
11.0628 39324.9
11.0782 39080.6
11.0935 38851.5
11.1088 38622.9
11.1241 38411.2
11.1394 38207.2
11.1547 38021.9
11.1701 37854.7
11.1854 37712.6
11.2007 37526.6
11.216 37327.9
11.2313 37193.5
11.2466 37066.3
11.262 36955.7
11.2773 36850.3
11.2926 36806
11.3079 36763.2
11.3232 36725
11.3385 36644.6
11.3538 36573.1
11.3692 36528.3
11.3845 36505.8
11.3998 36507.3
11.4151 36453.3
11.4304 36429.9
11.4457 36436.7
11.4611 36465.6
11.4764 36483.8
11.4917 36514.9
11.507 36527.1
11.5223 36561.1
11.5376 36619.5
11.553 36696
11.5683 36730.8
11.5836 36744.7
11.5989 36726.5
11.6142 36689.8
11.6295 36652.6
11.6449 36573.7
11.6602 36488.4
11.6755 36409.8
11.6908 36363.5
11.7061 36355.4
11.7214 36346.6
11.7368 36364.8
11.7521 36365.4
11.7674 36412.4
11.7827 36436.8
11.798 36466.8
11.8133 36452.9
11.8287 36426.9
11.844 36431.4
11.8593 36407.6
11.8746 36341.2
11.8899 36317.2
11.9052 36283.7
11.9206 36252.3
11.9359 36245.9
11.9512 36272.9
11.9665 36287.1
11.9818 36324.2
11.9971 36372
12.0125 36395.6
12.0278 36408.4
12.0431 36398
12.0584 36403.2
12.0737 36361.4
12.089 36323.6
12.1044 36308.6
12.1197 36313.1
12.135 36332.8
12.1503 36334.1
12.1656 36317.8
12.1809 36289.3
12.1962 36252.8
12.2116 36221.3
12.2269 36216
12.2422 36164.2
12.2575 36127.3
12.2728 36089.6
12.2881 36052.4
12.3035 36016.3
12.3188 36038.1
12.3341 36004.2
12.3494 35990.3
12.3647 35979.5
12.38 35973.8
12.3954 35949.9
12.4107 35942.5
12.426 35916.1
12.4413 35874
12.4566 35825.2
12.4719 35767.3
12.4873 35704.5
12.5026 35667.4
12.5179 35664.3
12.5332 35648.3
12.5485 35586.6
12.5638 35534.3
12.5792 35526.1
12.5945 35528.6
12.6098 35514.2
12.6251 35482.3
12.6404 35492
12.6557 35500.1
12.6711 35513.3
12.6864 35503.3
12.7017 35488.1
12.717 35464.7
12.7323 35490.6
12.7476 35521
12.763 35546.8
12.7783 35592.6
12.7936 35688.8
12.8089 35781.2
12.8242 35880.5
12.8395 35956.4
12.8549 36016.1
12.8702 35988
12.8855 35952.7
12.9008 35895.4
12.9161 35829.9
12.9314 35760.7
12.9467 35662.9
12.9621 35600.5
12.9774 35556.6
12.9927 35529.5
13.008 35537.7
13.0233 35492.5
13.0386 35465.3
13.054 35452.8
13.0693 35430.3
13.0846 35390.5
13.0999 35385.4
13.1152 35388.8
13.1305 35371.3
13.1459 35316.8
13.1612 35318.5
13.1765 35313.1
13.1918 35300.2
13.2071 35254.8
13.2224 35254.9
13.2378 35301.3
13.2531 35337.9
13.2684 35382.8
13.2837 35398.9
13.299 35448.3
13.3143 35448.3
13.3297 35491.9
13.345 35564.4
13.3603 35671.9
13.3756 35790.2
13.3909 35904.9
13.4062 36033.5
13.4216 36226.7
13.4369 36446.4
13.4522 36646.3
13.4675 36797.5
13.4828 36950.5
13.4981 37090.9
13.5135 37165.1
13.5288 37223.2
13.5441 37294.6
13.5594 37372.3
13.5747 37409.5
13.59 37408.9
13.6054 37400.9
13.6207 37351.5
13.636 37230.1
13.6513 37086.5
13.6666 36899.3
13.6819 36708.8
13.6973 36518.6
13.7126 36352.6
13.7279 36231.2
13.7432 36092.9
13.7585 35973.7
13.7738 35859.8
13.7891 35774.4
13.8045 35697.4
13.8198 35602.2
13.8351 35554.7
13.8504 35530.7
13.8657 35505
13.881 35493.9
13.8964 35539.4
13.9117 35591.1
13.927 35611.5
13.9423 35620.6
13.9576 35644.6
13.9729 35619
13.9883 35553
14.0036 35466.8
14.0189 35440.8
14.0342 35349.5
14.0495 35206.3
14.0648 35047.3
14.0802 34876.2
14.0955 34679.1
14.1108 34540.1
14.1261 34455
14.1414 34380.4
14.1567 34269
14.1721 34195.5
14.1874 34140
14.2027 34075.4
14.218 34018.4
14.2333 33979.8
14.2486 33922.6
14.264 33899.2
14.2793 33872.2
14.2946 33808.2
14.3099 33732
14.3252 33711.3
14.3405 33687.4
14.3559 33674.6
14.3712 33685.9
14.3865 33704.3
14.4018 33691.2
14.4171 33658.5
14.4324 33636.7
14.4478 33608.6
14.4631 33580.4
14.4784 33551.3
14.4937 33532.6
14.509 33544.6
14.5243 33580
14.5397 33604.1
14.555 33634.7
14.5703 33683.9
14.5856 33722.6
14.6009 33740.8
14.6162 33715.7
14.6315 33671.9
14.6469 33633.5
14.6622 33584.2
14.6775 33523.7
14.6928 33472
14.7081 33423
14.7234 33412.3
14.7388 33406.7
14.7541 33364.2
14.7694 33270.7
14.7847 33205.1
14.8 33148.6
14.8153 33084.7
14.8307 33048.1
14.846 33005.7
14.8613 32975.8
14.8766 32923.2
14.8919 32878.4
14.9072 32846.2
14.9226 32801.9
14.9379 32761.9
14.9532 32725.8
14.9685 32715.4
14.9838 32708.2
14.9991 32726
15.0145 32672.6
15.0298 32586.8
15.0451 32573.2
15.0604 32625.4
15.0757 32653.5
15.091 32669.6
15.1064 32685.4
15.1217 32692
15.137 32647.2
15.1523 32623.6
15.1676 32637.9
15.1829 32642.5
15.1983 32633
15.2136 32630.5
15.2289 32674.6
15.2442 32722
15.2595 32754.9
15.2748 32780.1
15.2902 32822.8
15.3055 32866.9
15.3208 32919.5
15.3361 32955.2
15.3514 32999.5
15.3667 33045
15.382 33063.7
15.3974 33029.6
15.4127 33009.4
15.428 33000
15.4433 32981.1
15.4586 32963.4
15.4739 32911.3
15.4893 32887.4
15.5046 32876.2
15.5199 32833.4
15.5352 32797.5
15.5505 32763.5
15.5658 32762.8
15.5812 32793.1
15.5965 32809.7
15.6118 32748.3
15.6271 32675.3
15.6424 32612.6
15.6577 32629.3
15.6731 32663
15.6884 32666.2
15.7037 32655.6
15.719 32650.1
15.7343 32616.8
15.7496 32545.1
15.765 32452.5
15.7803 32407.2
15.7956 32375.7
15.8109 32364.7
15.8262 32357.8
15.8415 32317.6
15.8569 32248.7
15.8722 32194.1
15.8875 32124.3
15.9028 32071.8
15.9181 32030.4
15.9334 31981.6
15.9488 31946.3
15.9641 31900.9
15.9794 31885.4
15.9947 31881
16.01 31854.1
16.0253 31845.3
16.0407 31812.7
16.056 31780.2
16.0713 31764.6
16.0866 31733.3
16.1019 31713.4
16.1172 31675.6
16.1326 31692.7
16.1479 31694.5
16.1632 31688.1
16.1785 31704.1
16.1938 31728.7
16.2091 31747.8
16.2244 31754.7
16.2398 31753
16.2551 31757.5
16.2704 31738.6
16.2857 31707.2
16.301 31640.6
16.3163 31589.1
16.3317 31565.3
16.347 31564
16.3623 31568.6
16.3776 31560.1
16.3929 31519
16.4082 31509.7
16.4236 31508.2
16.4389 31502.3
16.4542 31482.3
16.4695 31421.6
16.4848 31391.2
16.5001 31394
16.5155 31392.1
16.5308 31376.4
16.5461 31318.2
16.5614 31254.4
16.5767 31231.9
16.592 31249.1
16.6074 31212.5
16.6227 31201.7
16.638 31200
16.6533 31192.2
16.6686 31143
16.6839 31066.4
16.6993 31025.4
16.7146 30993.7
16.7299 30973.5
16.7452 30964
16.7605 30981.6
16.7758 30984.2
16.7912 30951
16.8065 30933.6
16.8218 30931.8
16.8371 30938.7
16.8524 30941.2
16.8677 30951.7
16.8831 30919.2
16.8984 30887.5
16.9137 30839.3
16.929 30794.3
16.9443 30781.7
16.9596 30783.8
16.9749 30818
16.9903 30813.4
17.0056 30750.4
17.0209 30689.5
17.0362 30650
17.0515 30650.4
17.0668 30591.6
17.0822 30520.4
17.0975 30473.9
17.1128 30453.1
17.1281 30483
17.1434 30483.5
17.1587 30484.6
17.1741 30487.1
17.1894 30459.8
17.2047 30447.5
17.22 30444.2
17.2353 30443.4
17.2506 30430.7
17.266 30359.8
17.2813 30319.7
17.2966 30269.7
17.3119 30220
17.3272 30219.8
17.3425 30232.1
17.3579 30243.7
17.3732 30265.2
17.3885 30303
17.4038 30332.7
17.4191 30337.6
17.4344 30338.2
17.4498 30345
17.4651 30342.5
17.4804 30319.1
17.4957 30301.3
17.511 30225
17.5263 30174
17.5417 30139.5
17.557 30128.7
17.5723 30172.5
17.5876 30190.8
17.6029 30237.7
17.6182 30281.5
17.6336 30296.4
17.6489 30325.2
17.6642 30362.9
17.6795 30399.2
17.6948 30396.5
17.7101 30352.9
17.7255 30321.2
17.7408 30309.2
17.7561 30277.3
17.7714 30236.4
17.7867 30218.3
17.802 30157.8
17.8173 30119.9
17.8327 30100.9
17.848 30122.5
17.8633 30135.5
17.8786 30160.9
17.8939 30180.6
17.9092 30188.7
17.9246 30192.2
17.9399 30188.6
17.9552 30168.1
17.9705 30131.8
17.9858 30106.8
18.0011 30084.7
18.0165 30054.5
18.0318 30045.6
18.0471 30092.3
18.0624 30112.9
18.0777 30074.8
18.093 30044.1
18.1084 30007.6
18.1237 29976.3
18.139 29962.8
18.1543 29967.3
18.1696 29975.8
18.1849 29918.7
18.2003 29900.7
18.2156 29903.2
18.2309 29852.9
18.2462 29835.9
18.2615 29870.6
18.2768 29887.6
18.2922 29864.9
18.3075 29905.8
18.3228 29944.2
18.3381 29988.4
18.3534 30010.4
18.3687 30005
18.3841 30009.2
18.3994 30007.4
18.4147 30025.3
18.43 29983.2
18.4453 29949
18.4606 29919.1
18.476 29911.9
18.4913 29917.3
18.5066 29880
18.5219 29849.1
18.5372 29799.8
18.5525 29760.8
18.5679 29783.1
18.5832 29785.3
18.5985 29737.8
18.6138 29708.1
18.6291 29692.7
18.6444 29647.4
18.6597 29617.6
18.6751 29613
18.6904 29624.2
18.7057 29620.9
18.721 29590.9
18.7363 29559
18.7516 29563
18.767 29575.6
18.7823 29579.5
18.7976 29562.8
18.8129 29550.3
18.8282 29529.9
18.8435 29500.6
18.8589 29484.7
18.8742 29448.8
18.8895 29404.4
18.9048 29380.5
18.9201 29336.5
18.9354 29313.3
18.9508 29290.9
18.9661 29227.6
18.9814 29184.4
18.9967 29159.4
19.012 29103.5
19.0273 29092.2
19.0427 29103.4
19.058 29084.4
19.0733 29051
19.0886 28999.2
19.1039 29000.2
19.1192 28991.7
19.1346 28984.8
19.1499 29010.9
19.1652 29013.7
19.1805 28970.8
19.1958 29008.4
19.2111 29017
19.2265 28987.7
19.2418 28941.8
19.2571 28907.7
19.2724 28922.5
19.2877 28929.8
19.303 28918.4
19.3184 28867.7
19.3337 28841.5
19.349 28841.2
19.3643 28798.5
19.3796 28745.5
19.3949 28742
19.4102 28743.1
19.4256 28751.8
19.4409 28706.2
19.4562 28677.3
19.4715 28692.7
19.4868 28691.9
19.5021 28675
19.5175 28677.1
19.5328 28688.9
19.5481 28670.1
19.5634 28645.1
19.5787 28600
19.594 28561.1
19.6094 28551
19.6247 28536
19.64 28511.5
19.6553 28568.6
19.6706 28547.2
19.6859 28476.3
19.7013 28458.4
19.7166 28501.7
19.7319 28532.6
19.7472 28547.3
19.7625 28510.4
19.7778 28449.1
19.7932 28421.1
19.8085 28402.6
19.8238 28381.8
19.8391 28375.4
19.8544 28338.1
19.8697 28342.3
19.8851 28354.5
19.9004 28330.2
19.9157 28302.9
19.931 28289.8
19.9463 28326.6
19.9616 28258.2
19.977 28175
19.9923 28207.3
20.0076 28187.5
20.0229 28206.5
20.0382 28235.7
20.0535 28218.9
20.0689 28210.8
20.0842 28191.3
20.0995 28202.6
20.1148 28214.7
20.1301 28216.5
20.1454 28203.6
20.1608 28220
20.1761 28215.1
20.1914 28186.9
20.2067 28134.8
20.222 28124.8
20.2373 28156.7
20.2526 28201.5
20.268 28140.9
20.2833 28129.5
20.2986 28157.4
20.3139 28189.8
20.3292 28161.6
20.3445 28141
20.3599 28145.7
20.3752 28130.8
20.3905 28155.7
20.4058 28161.9
20.4211 28151.3
20.4364 28168.6
20.4518 28153.6
20.4671 28117.1
20.4824 28127.4
20.4977 28117.6
20.513 28134.4
20.5283 28165.8
20.5437 28145.4
20.559 28145.3
20.5743 28129.4
20.5896 28156.9
20.6049 28149.3
20.6202 28145.6
20.6356 28128
20.6509 28156.5
20.6662 28179.4
20.6815 28201.6
20.6968 28173
20.7121 28138.6
20.7275 28137.2
20.7428 28098
20.7581 28022.5
20.7734 27995.1
20.7887 27945.1
20.804 27977.7
20.8194 28003.7
20.8347 28001.4
20.85 28027.9
20.8653 27987.5
20.8806 28008.5
20.8959 27987.9
20.9113 27981.9
20.9266 27960.2
20.9419 27910.9
20.9572 27912.5
20.9725 27936.5
20.9878 27906.3
21.0031 27937.6
21.0185 28063.1
21.0338 27998.7
21.0491 27914.1
21.0644 27904
21.0797 27934.1
21.095 27925.4
21.1104 27905.4
21.1257 27885.2
21.141 27884.7
21.1563 27915.5
21.1716 27901.6
21.1869 27874.3
21.2023 27880.3
21.2176 27893.5
21.2329 27881.2
21.2482 27887
21.2635 27882.6
21.2788 27913.4
21.2942 27931.4
21.3095 27835.1
21.3248 27845.8
21.3401 27843.3
21.3554 27846.1
21.3707 27837.9
21.3861 27891.5
21.4014 27865.8
21.4167 27840.5
21.432 27850.1
21.4473 27873.8
21.4626 27867.9
21.478 27830
21.4933 27855.7
21.5086 27882.1
21.5239 27888.3
21.5392 27919.1
21.5545 27912.8
21.5699 27864.5
21.5852 27824.6
21.6005 27812.3
21.6158 27775.4
21.6311 27749
21.6464 27781.5
21.6618 27789
21.6771 27807.7
21.6924 27823.3
21.7077 27835.6
21.723 27877.7
21.7383 27861.7
21.7537 27864.9
21.769 27866
21.7843 27885
21.7996 27895.8
21.8149 27932.3
21.8302 27877.3
21.8455 27856.1
21.8609 27801.2
21.8762 27808
21.8915 27886.1
21.9068 27855.2
21.9221 27850.9
21.9374 27852.7
21.9528 27824.8
21.9681 27839.2
21.9834 27912.3
21.9987 27859.8
22.014 27808.6
22.0293 27864.3
22.0447 27945.4
22.06 27981.6
22.0753 27981.3
22.0906 27997.6
22.1059 28016.7
22.1212 27977.4
22.1366 27980.1
22.1519 28060.8
22.1672 28065.4
22.1825 28043.3
22.1978 27990.8
22.2131 27995.4
22.2285 28038.5
22.2438 28026.7
22.2591 28038.2
22.2744 28032.9
22.2897 28021.7
22.305 28102.2
22.3204 28144.7
22.3357 28112.5
22.351 28084.2
22.3663 28085.5
22.3816 28157.5
22.3969 28193.3
22.4123 28163.4
22.4276 28204.4
22.4429 28168.3
22.4582 28135.9
22.4735 28169.6
22.4888 28161
22.5042 28123
22.5195 28170.7
22.5348 28162.6
22.5501 28152
22.5654 28175.7
22.5807 28203.2
22.596 28192.5
22.6114 28199.8
22.6267 28172.7
22.642 28133.6
22.6573 28165
22.6726 28165.2
22.6879 28182.5
22.7033 28164.1
22.7186 28191.4
22.7339 28174.5
22.7492 28240.2
22.7645 28277
22.7798 28254.5
22.7952 28243
22.8105 28191.2
22.8258 28207.4
22.8411 28208.2
22.8564 28255
22.8717 28285.1
22.8871 28253.3
22.9024 28268.7
22.9177 28284.3
22.933 28256.3
22.9483 28277.6
22.9636 28341.9
22.979 28354.5
22.9943 28422.9
