# xPDFsuite Configuration #
[PDF]
wavelength = 0.1
dataformat = QA
inputfile = B3_Bronze-3nm_ss_38.chi
backgroundfile = B3_Li-bkg_ss.chi
mode = xray
bgscale = 0.98705
composition = Ti O2
outputtype = iq
qmaxinst = 23.0
qmin = 0.1
qmax = 23.0
rmax = 30.0
rmin = 0.0
rstep = 0.01
rpoly = 0.9

[Misc]
inputdir = E:/Beamtime/PETRA-III_September-2019/BeamData/processed/Run1/B3/chi/chi_w_sigmas/chi_scaled
savedir = E:/Beamtime/PETRA-III_September-2019/BeamData/processed/Run1/B3
backgroundfilefull = E:/Beamtime/PETRA-III_September-2019/BeamData/processed/Run1/B3/chi/chi_w_sigmas/chi_scaled/B3_Li-bkg_ss.chi

#### start data
#S 1
#L Q($\AA^{-1}$)  intensity(a.u.)
0.111649 0
0.126965 0
0.142282 0
0.157598 0
0.172914 0
0.188231 0
0.203547 0
0.218864 0
0.23418 0
0.249496 0
0.264813 0
0.280129 0
0.295445 0
0.310762 0
0.326078 0
0.341394 0
0.356711 0
0.372027 0
0.387343 0
0.40266 0
0.417976 0
0.433292 0
0.448609 0
0.463925 0
0.479241 0
0.494558 0
0.509874 0
0.525191 0
0.540507 0
0.555823 0
0.57114 0
0.586456 0
0.601772 0
0.617089 0
0.632405 0
0.647721 0
0.663038 0
0.678354 0
0.69367 0
0.708987 0
0.724303 0
0.739619 0
0.754936 0
0.770252 0
0.785568 0
0.800885 0
0.816201 0
0.831518 0
0.846834 0
0.86215 1.35148
0.877467 97031.2
0.892783 96670.6
0.908099 96075.1
0.923416 96149.3
0.938732 96330.4
0.954048 96719.4
0.969365 96871.3
0.984681 96606.9
0.999997 95421.9
1.01531 93519
1.03063 90190.6
1.04595 86024.5
1.06126 80735.4
1.07658 74270.6
1.0919 67556
1.10721 59732.4
1.12253 52468.4
1.13784 44942.5
1.15316 37892.3
1.16848 31540.9
1.18379 25495.5
1.19911 20527.6
1.21443 15934.1
1.22974 12258.2
1.24506 9266.1
1.26038 6926.89
1.27569 5373.24
1.29101 4289.65
1.30632 3917.48
1.32164 4095.15
1.33696 4771.81
1.35227 5848.45
1.36759 7391.71
1.38291 9159.84
1.39822 11236.7
1.41354 13157.2
1.42886 14953.9
1.44417 16564.2
1.45949 18010.4
1.4748 19309.3
1.49012 20654.1
1.50544 22269.9
1.52075 24387.7
1.53607 27406.1
1.55139 31681.2
1.5667 36963.1
1.58202 44378.1
1.59733 52927.1
1.61265 63279.7
1.62797 75111.4
1.64328 87763
1.6586 102064
1.67392 115984
1.68923 130178
1.70455 143168
1.71987 154602
1.73518 164682
1.7505 172475
1.76581 179020
1.78113 182981
1.79645 185026
1.81176 184982
1.82708 182977
1.8424 179065
1.85771 174011
1.87303 167761
1.88835 161078
1.90366 154564
1.91898 148430
1.93429 143314
1.94961 139290
1.96493 136576
1.98024 134965
1.99556 133956
2.01088 133316
2.02619 132307
2.04151 130640
2.05683 127946
2.07214 124338
2.08746 119996
2.10277 114841
2.11809 109434
2.13341 103477
2.14872 97725.4
2.16404 92133.8
2.17936 86966.1
2.19467 82574.2
2.20999 78762
2.22531 75922.1
2.24062 73609.6
2.25594 71888.5
2.27125 70518.8
2.28657 69309.7
2.30189 68229.5
2.3172 67028.2
2.33252 65725.1
2.34784 64175.4
2.36315 62622.6
2.37847 61116.6
2.39379 59542.8
2.4091 58457.8
2.42442 57452.1
2.43973 57017.6
2.45505 56829.2
2.47037 56858.2
2.48568 57197.1
2.501 57615.4
2.51632 58298
2.53163 58819.6
2.54695 59204.7
2.56226 59395.4
2.57758 59570.9
2.5929 59673.2
2.60821 59702.4
2.62353 59502.4
2.63885 59130.2
2.65416 58721.2
2.66948 58267.8
2.6848 57759.5
2.70011 57235.2
2.71543 56894.8
2.73074 56622.5
2.74606 56559.2
2.76138 56758.9
2.77669 57336.6
2.79201 58349
2.80733 59856.4
2.82264 62022
2.83796 64947.7
2.85328 68699.5
2.86859 73535.6
2.88391 79257.3
2.89922 86264.9
2.91454 94185
2.92986 102884
2.94517 112195
2.96049 121479
2.97581 130898
2.99112 139204
3.00644 146640
3.02176 152136
3.03707 155658
3.05239 157063
3.0677 156312
3.08302 153693
3.09834 149390
3.11365 144041
3.12897 138090
3.14429 132193
3.1596 126628
3.17492 122119
3.19024 118418
3.20555 115946
3.22087 114390
3.23618 113416
3.2515 112798
3.26682 112078
3.28213 111062
3.29745 109356
3.31277 107104
3.32808 104225
3.3434 100765
3.35872 97191.8
3.37403 93289.9
3.38935 89670.6
3.40466 86170.3
3.41998 83076.3
3.4353 80416.1
3.45061 78118.9
3.46593 76398.7
3.48125 74964.3
3.49656 73960.4
3.51188 73286.6
3.52719 73044.4
3.54251 73243
3.55783 73712.3
3.57314 74466.6
3.58846 75530.3
3.60378 76821.6
3.61909 78266.4
3.63441 79801.4
3.64973 81260.7
3.66504 82543.7
3.68036 83570.5
3.69567 84263.5
3.71099 84636.9
3.72631 84758.9
3.74162 84669.7
3.75694 84619
3.77226 84514
3.78757 84627.4
3.80289 85000.9
3.81821 85678.1
3.83352 86640.4
3.84884 87990.8
3.86415 89474.3
3.87947 91009
3.89479 92390.6
3.9101 93521.4
3.92542 94267.1
3.94074 94534.1
3.95605 94247.8
3.97137 93571.9
3.98669 92408.5
4.002 91023.9
4.01732 89469.8
4.03263 87941.4
4.04795 86612.2
4.06327 85653.4
4.07858 85150.2
4.0939 85089.3
4.10922 85403.5
4.12453 85985.4
4.13985 86768.7
4.15517 87522.1
4.17048 88089.3
4.1858 88345.7
4.20111 88276.6
4.21643 87929.5
4.23175 87262.6
4.24706 86276.2
4.26238 85068.5
4.2777 83787.3
4.29301 82496.1
4.30833 81302.1
4.32365 80317.1
4.33896 79644.1
4.35428 79307.9
4.36959 79208.1
4.38491 79438.5
4.40023 79758.6
4.41554 80178.6
4.43086 80556.1
4.44618 80800.9
4.46149 80867.2
4.47681 80669.7
4.49213 80190.2
4.50744 79375.6
4.52276 78287.1
4.53807 76881.9
4.55339 75299.5
4.56871 73510.5
4.58402 71636.6
4.59934 69637.8
4.61466 67659
4.62997 65724
4.64529 63884.9
4.6606 62227.4
4.67592 60688.4
4.69124 59342.7
4.70655 58176.1
4.72187 57247.9
4.73719 56594.9
4.7525 56204.3
4.76782 56109.8
4.78314 56322.6
4.79845 56800.9
4.81377 57568.5
4.82908 58616.1
4.8444 59962.8
4.85972 61496.5
4.87503 63185.2
4.89035 64989.1
4.90567 66888.4
4.92098 68867.6
4.9363 70872.7
4.95162 72908.8
4.96693 74936.2
4.98225 77105.2
4.99756 79562
5.01288 82120
5.0282 84596.7
5.04351 87082.5
5.05883 89068.3
5.07415 90543
5.08946 91351.8
5.10478 91366.3
5.1201 90865.6
5.13541 89653.6
5.15073 88093.4
5.16604 86163
5.18136 84151.4
5.19668 82224.5
5.21199 80607.6
5.22731 79232.6
5.24263 78210
5.25794 77298
5.27326 76704.7
5.28858 76315.3
5.30389 76243.8
5.31921 76536
5.33452 77140.5
5.34984 78023.3
5.36516 78903.4
5.38047 79618.3
5.39579 79844.7
5.41111 79485.1
5.42642 78471.8
5.44174 76850.6
5.45706 74521.4
5.47237 71689.3
5.48769 68500.9
5.503 65217.7
5.51832 62183.5
5.53364 59373.3
5.54895 57119
5.56427 55271.6
5.57959 53830.9
5.5949 52674.5
5.61022 51674.4
5.62553 50864.9
5.64085 50083.1
5.65617 49415.4
5.67148 48831.6
5.6868 48391.3
5.70212 48028.9
5.71743 47724.6
5.73275 47583.3
5.74807 47568.4
5.76338 47708.9
5.7787 47948.9
5.79401 48374
5.80933 49015
5.82465 49772.2
5.83996 50673.1
5.85528 51613.5
5.8706 52638.7
5.88591 53627.4
5.90123 54571.5
5.91655 55426.9
5.93186 56180.6
5.94718 56782.4
5.96249 57197.8
5.97781 57454.4
5.99313 57504.2
6.00844 57425.6
6.02376 57200.6
6.03908 56916.2
6.05439 56562.2
6.06971 56227.1
6.08503 55908.1
6.10034 55669.3
6.11566 55522.9
6.13097 55431.5
6.14629 55368.5
6.16161 55380.2
6.17692 55459.5
6.19224 55606.6
6.20756 55775.2
6.22287 56022.8
6.23819 56296.1
6.25351 56553.3
6.26882 56735.1
6.28414 56779
6.29945 56657
6.31477 56320.6
6.33009 55780.7
6.3454 55074.1
6.36072 54268.4
6.37604 53437.3
6.39135 52612.1
6.40667 51844.7
6.42199 51210.2
6.4373 50725.3
6.45262 50373.2
6.46793 50158.7
6.48325 50017.2
6.49857 49923.1
6.51388 49895.7
6.5292 49862.4
6.54452 49833.9
6.55983 49772.9
6.57515 49744.9
6.59046 49716.9
6.60578 49751.4
6.6211 49838.1
6.63641 49968.6
6.65173 50119.9
6.66705 50340.4
6.68236 50623.3
6.69768 50986.6
6.713 51410.2
6.72831 51893.7
6.74363 52391.4
6.75894 52953.5
6.77426 53538
6.78958 54157.3
6.80489 54766.8
6.82021 55343.2
6.83553 55865.5
6.85084 56273
6.86616 56577.5
6.88148 56797.8
6.89679 56944.7
6.91211 56990.9
6.92742 56942.7
6.94274 56822.4
6.95806 56634.5
6.97337 56408
6.98869 56126.9
7.00401 55814.3
7.01932 55464.1
7.03464 55076.5
7.04996 54663.6
7.06527 54255.6
7.08059 53870.2
7.0959 53459.9
7.11122 53030.7
7.12654 52578.5
7.14185 52136.1
7.15717 51719.6
7.17249 51317.9
7.1878 50929.1
7.20312 50583.1
7.21844 50295.9
7.23375 50074.7
7.24907 49887.6
7.26438 49756.3
7.2797 49627.7
7.29502 49509.1
7.31033 49366
7.32565 49226.9
7.34097 49079.2
7.35628 48936.6
7.3716 48776
7.38692 48630.2
7.40223 48545.1
7.41755 48538.4
7.43286 48596.1
7.44818 48679.8
7.4635 48829.2
7.47881 49032
7.49413 49288.8
7.50945 49535.3
7.52476 49748.7
7.54008 49868.2
7.55539 49929
7.57071 49889.3
7.58603 49754.3
7.60134 49559.9
7.61666 49283.1
7.63198 48973
7.64729 48608
7.66261 48286.8
7.67793 48070.1
7.69324 47966.1
7.70856 47982.2
7.72387 48124.7
7.73919 48370.6
7.75451 48700.2
7.76982 49062
7.78514 49420.5
7.80046 49760.8
7.81577 49993.5
7.83109 50078.6
7.84641 50004.5
7.86172 49797.2
7.87704 49455.3
7.89235 49022.3
7.90767 48549.3
7.92299 48082.1
7.9383 47608.3
7.95362 47178.8
7.96894 46775.4
7.98425 46372.4
7.99957 45970.4
8.01489 45607
8.0302 45258.2
8.04552 44944.8
8.06083 44649.1
8.07615 44415.7
8.09147 44246.9
8.10678 44131.5
8.1221 44067.1
8.13742 44067.6
8.15273 44114.6
8.16805 44223.3
8.18337 44378.6
8.19868 44583.3
8.214 44801.8
8.22931 45059.1
8.24463 45316.4
8.25995 45513.8
8.27526 45642.5
8.29058 45697.8
8.3059 45747.3
8.32121 45751.4
8.33653 45727.8
8.35185 45662.4
8.36716 45556.4
8.38248 45445.2
8.39779 45330.5
8.41311 45196.9
8.42843 45057.4
8.44374 44911.9
8.45906 44768.1
8.47438 44627.7
8.48969 44454.7
8.50501 44308.1
8.52032 44138.1
8.53564 43970.8
8.55096 43806
8.56627 43618.1
8.58159 43457.7
8.59691 43301
8.61222 43175.8
8.62754 43067.6
8.64286 43000.7
8.65817 43009.3
8.67349 43030.3
8.6888 43094.9
8.70412 43207.9
8.71944 43470.9
8.73475 43866.1
8.75007 44402.4
8.76539 45081.2
8.7807 45861.6
8.79602 46631.6
8.81134 47361.4
8.82665 47964.3
8.84197 48457.4
8.85728 48761.7
8.8726 48960.3
8.88792 49028.4
8.90323 49088.7
8.91855 49159.2
8.93387 49289.5
8.94918 49498.5
8.9645 49702.9
8.97982 49891.9
8.99513 49968.9
9.01045 49948.5
9.02576 49732
9.04108 49345.9
9.0564 48803.6
9.07171 48142.1
9.08703 47426.6
9.10235 46658.6
9.11766 45935.8
9.13298 45255.6
9.1483 44652
9.16361 44118.9
9.17893 43659.7
9.19424 43256.1
9.20956 42914.3
9.22488 42589.7
9.24019 42297.3
9.25551 42023.7
9.27083 41757.5
9.28614 41497.5
9.30146 41298.1
9.31678 41102.6
9.33209 40921.3
9.34741 40778.6
9.36272 40673.2
9.37804 40582.7
9.39336 40527.1
9.40867 40496.2
9.42399 40479.3
9.43931 40506
9.45462 40562.9
9.46994 40658.5
9.48525 40777.3
9.50057 40919.1
9.51589 41091.3
9.5312 41259.5
9.54652 41389.2
9.56184 41456.3
9.57715 41418.2
9.59247 41289.3
9.60779 41090.5
9.6231 40844.8
9.63842 40542.6
9.65373 40240.8
9.66905 39925
9.68437 39659.4
9.69968 39439.1
9.715 39297.6
9.73032 39222.9
9.74563 39157
9.76095 39130.4
9.77627 39143.8
9.79158 39195.4
9.8069 39268.9
9.82221 39340.4
9.83753 39410.1
9.85285 39451.1
9.86816 39491
9.88348 39548.7
9.8988 39622.6
9.91411 39708.3
9.92943 39841.3
9.94475 39998.5
9.96006 40187.2
9.97538 40382.7
9.99069 40581.7
10.006 40782.7
10.0213 41011.7
10.0366 41253
10.052 41520.6
10.0673 41768.3
10.0826 42004.3
10.0979 42231.9
10.1132 42449.9
10.1285 42739.3
10.1439 43033.6
10.1592 43349.7
10.1745 43597.2
10.1898 43769
10.2051 43863.4
10.2204 43907.7
10.2358 43914.6
10.2511 43919.7
10.2664 43946.6
10.2817 44052.2
10.297 44217
10.3123 44459.1
10.3277 44709.8
10.343 44954.4
10.3583 45103
10.3736 45117.4
10.3889 45040.1
10.4042 44869.7
10.4196 44630
10.4349 44347.3
10.4502 44073.7
10.4655 43837.2
10.4808 43646.5
10.4961 43502
10.5115 43397.5
10.5268 43326.4
10.5421 43314.2
10.5574 43360.3
10.5727 43449.7
10.588 43554.8
10.6033 43670.4
10.6187 43741.8
10.634 43739.6
10.6493 43658.6
10.6646 43538.3
10.6799 43386.4
10.6952 43229
10.7106 43054.1
10.7259 42871.7
10.7412 42720.3
10.7565 42640.8
10.7718 42596.9
10.7871 42572.3
10.8025 42562.4
10.8178 42585
10.8331 42578.6
10.8484 42501.2
10.8637 42350.6
10.879 42171
10.8944 41953
10.9097 41710.8
10.925 41452.5
10.9403 41177.6
10.9556 40898.3
10.9709 40642.7
10.9863 40410.6
11.0016 40215
11.0169 40024.6
11.0322 39826.3
11.0475 39626
11.0628 39403.6
11.0782 39178.2
11.0935 38958.8
11.1088 38731.5
11.1241 38525.2
11.1394 38340.3
11.1547 38160.6
11.1701 37969.5
11.1854 37812.3
11.2007 37654.6
11.216 37496.1
11.2313 37348.5
11.2466 37203.9
11.262 37088.3
11.2773 36999.7
11.2926 36941.7
11.3079 36866.6
11.3232 36798.9
11.3385 36726
11.3538 36686.5
11.3692 36616.6
11.3845 36562.2
11.3998 36555.9
11.4151 36556.9
11.4304 36571.2
11.4457 36563
11.4611 36580.8
11.4764 36604.8
11.4917 36630.7
11.507 36669.6
11.5223 36743.9
11.5376 36787
11.553 36837.2
11.5683 36869.8
11.5836 36876
11.5989 36857.6
11.6142 36828.2
11.6295 36781.3
11.6449 36716.5
11.6602 36644.9
11.6755 36585.9
11.6908 36520.1
11.7061 36494.1
11.7214 36471.3
11.7368 36461.3
11.7521 36453.8
11.7674 36486.8
11.7827 36525.7
11.798 36568.2
11.8133 36553.6
11.8287 36539.5
11.844 36516.3
11.8593 36463.8
11.8746 36428
11.8899 36427.8
11.9052 36434.9
11.9206 36425.7
11.9359 36424.9
11.9512 36429.9
11.9665 36441.6
11.9818 36476.5
11.9971 36493.9
12.0125 36522.8
12.0278 36521.3
12.0431 36506.8
12.0584 36466.7
12.0737 36450.3
12.089 36425.1
12.1044 36395.3
12.1197 36359.6
12.135 36359.3
12.1503 36384
12.1656 36389
12.1809 36390.6
12.1962 36358.2
12.2116 36310.6
12.2269 36276.9
12.2422 36252.1
12.2575 36240.7
12.2728 36218
12.2881 36202.8
12.3035 36189.1
12.3188 36160.1
12.3341 36105.6
12.3494 36072.2
12.3647 36061.3
12.38 36039.5
12.3954 36001.3
12.4107 35969.6
12.426 35943.1
12.4413 35926.4
12.4566 35904.9
12.4719 35873.1
12.4873 35814.7
12.5026 35763.8
12.5179 35740.2
12.5332 35714
12.5485 35690.4
12.5638 35653.3
12.5792 35614.1
12.5945 35596.8
12.6098 35582.2
12.6251 35565.2
12.6404 35568.1
12.6557 35571.8
12.6711 35599.3
12.6864 35576
12.7017 35526.5
12.717 35516.6
12.7323 35541.5
12.7476 35579.5
12.763 35640.3
12.7783 35714
12.7936 35802.3
12.8089 35869.6
12.8242 35950.6
12.8395 36035.2
12.8549 36103.5
12.8702 36077.7
12.8855 36004.2
12.9008 35941.4
12.9161 35875.4
12.9314 35804.9
12.9467 35703.3
12.9621 35661.1
12.9774 35600.1
12.9927 35554.9
13.008 35519
13.0233 35512.1
13.0386 35518.4
13.054 35552.7
13.0693 35548.5
13.0846 35514.8
13.0999 35500.6
13.1152 35510.2
13.1305 35482.5
13.1459 35435.1
13.1612 35418.8
13.1765 35402.9
13.1918 35407.4
13.2071 35401.3
13.2224 35406.3
13.2378 35407.6
13.2531 35436.8
13.2684 35488.5
13.2837 35493.2
13.299 35518.6
13.3143 35557.9
13.3297 35604.3
13.345 35641.3
13.3603 35733.9
13.3756 35843.6
13.3909 35968.6
13.4062 36102
13.4216 36276.6
13.4369 36475.9
13.4522 36669.1
13.4675 36856
13.4828 37030.8
13.4981 37165.5
13.5135 37243.9
13.5288 37295.5
13.5441 37355.3
13.5594 37454.7
13.5747 37511.3
13.59 37558.5
13.6054 37564.2
13.6207 37521.4
13.636 37415
13.6513 37250
13.6666 37048.9
13.6819 36835.3
13.6973 36642
13.7126 36482.9
13.7279 36326
13.7432 36207.5
13.7585 36107.4
13.7738 36011.1
13.7891 35929.7
13.8045 35848.3
13.8198 35774.5
13.8351 35732.3
13.8504 35693.7
13.8657 35662.8
13.881 35649.3
13.8964 35659.7
13.9117 35691.3
13.927 35691.2
13.9423 35707.3
13.9576 35758.3
13.9729 35763.7
13.9883 35725.5
14.0036 35679.5
14.0189 35617.1
14.0342 35472.9
14.0495 35326.3
14.0648 35169.3
14.0802 35013.1
14.0955 34859.5
14.1108 34727.1
14.1261 34595.8
14.1414 34499.6
14.1567 34403.5
14.1721 34311.8
14.1874 34246.5
14.2027 34179.7
14.218 34142.3
14.2333 34102.2
14.2486 34054
14.264 34007.6
14.2793 33982.9
14.2946 33945.8
14.3099 33897.2
14.3252 33847.8
14.3405 33809.3
14.3559 33767.5
14.3712 33738.5
14.3865 33733.9
14.4018 33719.4
14.4171 33702.2
14.4324 33693.8
14.4478 33691.2
14.4631 33657.1
14.4784 33642.7
14.4937 33663
14.509 33685.4
14.5243 33703.8
14.5397 33697.8
14.555 33694.6
14.5703 33714
14.5856 33735.5
14.6009 33760.5
14.6162 33773.5
14.6315 33721
14.6469 33672.4
14.6622 33645.8
14.6775 33608.2
14.6928 33581.3
14.7081 33541.8
14.7234 33517.7
14.7388 33475.9
14.7541 33438.4
14.7694 33367.7
14.7847 33273.6
14.8 33213.2
14.8153 33171.3
14.8307 33140.3
14.846 33106.1
14.8613 33068.5
14.8766 33001.9
14.8919 32942.2
14.9072 32897
14.9226 32872.3
14.9379 32809
14.9532 32745
14.9685 32754.5
14.9838 32780.6
14.9991 32778.5
15.0145 32737.5
15.0298 32723.7
15.0451 32711.7
15.0604 32678.7
15.0757 32639.6
15.091 32612.2
15.1064 32639
15.1217 32653
15.137 32670.6
15.1523 32687.6
15.1676 32718.3
15.1829 32738.3
15.1983 32749.7
15.2136 32759.7
15.2289 32770.6
15.2442 32812.1
15.2595 32854.4
15.2748 32887.4
15.2902 32915.4
15.3055 32937.4
15.3208 32976.8
15.3361 33036.6
15.3514 33082.7
15.3667 33105.1
15.382 33105.1
15.3974 33105.7
15.4127 33133.6
15.428 33123.3
15.4433 33109.5
15.4586 33086.4
15.4739 33045.4
15.4893 32997.3
15.5046 32968
15.5199 32936.7
15.5352 32901.8
15.5505 32850.7
15.5658 32821.4
15.5812 32799.5
15.5965 32802.7
15.6118 32785.4
15.6271 32749.4
15.6424 32717.7
15.6577 32688.9
15.6731 32669.8
15.6884 32656.4
15.7037 32652
15.719 32633.8
15.7343 32589.7
15.7496 32552.3
15.765 32504
15.7803 32479.5
15.7956 32460.5
15.8109 32429.5
15.8262 32413.1
15.8415 32359.6
15.8569 32285.1
15.8722 32233.6
15.8875 32192.5
15.9028 32118.8
15.9181 32078.5
15.9334 32032.6
15.9488 31990.4
15.9641 31965.7
15.9794 31940.7
15.9947 31912.4
16.01 31856.6
16.0253 31831.3
16.0407 31807.5
16.056 31768.8
16.0713 31744.2
16.0866 31715.1
16.1019 31730.2
16.1172 31738.4
16.1326 31725.2
16.1479 31697.2
16.1632 31670.7
16.1785 31659.7
16.1938 31669.6
16.2091 31689.6
16.2244 31689.1
16.2398 31686.1
16.2551 31687.8
16.2704 31682.2
16.2857 31669.3
16.301 31668.5
16.3163 31662.2
16.3317 31651.1
16.347 31677.2
16.3623 31678.2
16.3776 31634.2
16.3929 31599.1
16.4082 31603.1
16.4236 31593.3
16.4389 31546.1
16.4542 31494.2
16.4695 31464.7
16.4848 31447.8
16.5001 31426.5
16.5155 31415.7
16.5308 31386.8
16.5461 31361.3
16.5614 31368.3
16.5767 31335.6
16.592 31265.9
16.6074 31191.1
16.6227 31159.6
16.638 31138.3
16.6533 31148.4
16.6686 31146.5
16.6839 31106.9
16.6993 31056.3
16.7146 31009.7
16.7299 31028.6
16.7452 31063.5
16.7605 31049.3
16.7758 31021.8
16.7912 30972
16.8065 30924.9
16.8218 30928.8
16.8371 30922.1
16.8524 30879.8
16.8677 30888.5
16.8831 30906.7
16.8984 30895.3
16.9137 30851.2
16.929 30806.4
16.9443 30794.5
16.9596 30789.8
16.9749 30779.7
16.9903 30765.8
17.0056 30743.2
17.0209 30710.7
17.0362 30687.4
17.0515 30690.4
17.0668 30653.7
17.0822 30624.4
17.0975 30594.5
17.1128 30542.3
17.1281 30516.8
17.1434 30509.1
17.1587 30499.5
17.1741 30486.3
17.1894 30460.9
17.2047 30463
17.22 30426.9
17.2353 30385.6
17.2506 30357.7
17.266 30341.6
17.2813 30333.5
17.2966 30335.6
17.3119 30322.5
17.3272 30292.5
17.3425 30267.4
17.3579 30256.6
17.3732 30242.9
17.3885 30283.6
17.4038 30329.4
17.4191 30314.6
17.4344 30293
17.4498 30279.8
17.4651 30264.5
17.4804 30270.9
17.4957 30272.2
17.511 30242.9
17.5263 30230.5
17.5417 30214
17.557 30205.6
17.5723 30227.7
17.5876 30206
17.6029 30212.3
17.6182 30233.2
17.6336 30252.4
17.6489 30248.5
17.6642 30258.3
17.6795 30267.1
17.6948 30300.7
17.7101 30300.1
17.7255 30294.8
17.7408 30299.4
17.7561 30266.9
17.7714 30244.1
17.7867 30252
17.802 30248.9
17.8173 30202
17.8327 30155.6
17.848 30140.5
17.8633 30156.4
17.8786 30158.2
17.8939 30130.2
17.9092 30113.8
17.9246 30105.2
17.9399 30090.6
17.9552 30053.7
17.9705 30033.6
17.9858 30022.4
18.0011 30003.6
18.0165 29999.2
18.0318 29991.2
18.0471 29974.5
18.0624 29968.1
18.0777 29960.7
18.093 29940.9
18.1084 29926.9
18.1237 29908.6
18.139 29883.4
18.1543 29883.7
18.1696 29888.8
18.1849 29871
18.2003 29846.7
18.2156 29846
18.2309 29847.1
18.2462 29837.7
18.2615 29836.2
18.2768 29840.1
18.2922 29825.8
18.3075 29827.7
18.3228 29867.7
18.3381 29889.4
18.3534 29893.1
18.3687 29906.4
18.3841 29942.1
18.3994 29974.6
18.4147 29994.3
18.43 30013.2
18.4453 29965.4
18.4606 29925
18.476 29917.5
18.4913 29915.4
18.5066 29883.2
18.5219 29880.4
18.5372 29869.6
18.5525 29837.9
18.5679 29796.5
18.5832 29759.9
18.5985 29753.3
18.6138 29742.4
18.6291 29693.8
18.6444 29668.3
18.6597 29674.2
18.6751 29651.5
18.6904 29643.3
18.7057 29639.5
18.721 29604.9
18.7363 29582.4
18.7516 29594.5
18.767 29591.9
18.7823 29548.7
18.7976 29486.9
18.8129 29467
18.8282 29447.7
18.8435 29424.7
18.8589 29405.5
18.8742 29358.5
18.8895 29325.7
18.9048 29309.1
18.9201 29269.4
18.9354 29253.5
18.9508 29264.4
18.9661 29218.1
18.9814 29205.5
18.9967 29177
19.012 29116.9
19.0273 29087.2
19.0427 29087.9
19.058 29074.5
19.0733 29042.8
19.0886 29016.3
19.1039 29000.8
19.1192 28994.5
19.1346 29002
19.1499 28992.3
19.1652 29012
19.1805 28975
19.1958 28940.5
19.2111 28952.5
19.2265 28954
19.2418 28953.5
19.2571 28924.9
19.2724 28889.5
19.2877 28899.4
19.303 28891.4
19.3184 28870.6
19.3337 28836.3
19.349 28814.6
19.3643 28788.5
19.3796 28730.4
19.3949 28678.6
19.4102 28654.2
19.4256 28612.5
19.4409 28612.7
19.4562 28620.2
19.4715 28637.1
19.4868 28624.7
19.5021 28586.8
19.5175 28612.4
19.5328 28597.1
19.5481 28540
19.5634 28514.1
19.5787 28509.2
19.594 28497.2
19.6094 28507.7
19.6247 28491.6
19.64 28455.3
19.6553 28455.5
19.6706 28471.3
19.6859 28453.7
19.7013 28443.3
19.7166 28433.8
19.7319 28443
19.7472 28400.6
19.7625 28365
19.7778 28355.5
19.7932 28354.9
19.8085 28347.7
19.8238 28345.1
19.8391 28315.5
19.8544 28290.7
19.8697 28248.5
19.8851 28266.5
19.9004 28317.1
19.9157 28305.5
19.931 28274.2
19.9463 28278.4
19.9616 28232
19.977 28177.4
19.9923 28193.9
20.0076 28206.3
20.0229 28222.2
20.0382 28209.5
20.0535 28159
20.0689 28118.8
20.0842 28105.8
20.0995 28154.2
20.1148 28170.5
20.1301 28116.6
20.1454 28110.9
20.1608 28133.7
20.1761 28154.3
20.1914 28116.7
20.2067 28075.1
20.222 28063.2
20.2373 28091.6
20.2526 28109.5
20.268 28094.3
20.2833 28063.8
20.2986 28048.6
20.3139 28057.6
20.3292 28094.7
20.3445 28092.7
20.3599 28087.2
20.3752 28062.8
20.3905 28059
20.4058 28068.7
20.4211 28075.7
20.4364 28065.5
20.4518 28074.7
20.4671 28075.2
20.4824 28111.2
20.4977 28095.8
20.513 28069.1
20.5283 28089.1
20.5437 28089.8
20.559 28088.2
20.5743 28058.9
20.5896 28061.1
20.6049 28048
20.6202 28038.4
20.6356 27987.4
20.6509 27989
20.6662 28023.8
20.6815 28024.2
20.6968 27990.2
20.7121 27958.3
20.7275 27941.9
20.7428 27950.3
20.7581 27939.4
20.7734 27930.7
20.7887 27936.7
20.804 27932.6
20.8194 27947.3
20.8347 27958.3
20.85 28002.1
20.8653 27961.7
20.8806 27919.3
20.8959 27893.6
20.9113 27841.5
20.9266 27843.7
20.9419 27836.9
20.9572 27832.3
20.9725 27848.2
20.9878 27831.1
21.0031 27812.7
21.0185 27877.6
21.0338 27843.5
21.0491 27825.6
21.0644 27839.6
21.0797 27813.2
21.095 27818.2
21.1104 27810.6
21.1257 27839.2
21.141 27840.6
21.1563 27810.2
21.1716 27826.9
21.1869 27860.9
21.2023 27850.4
21.2176 27841.2
21.2329 27811.2
21.2482 27761.7
21.2635 27757.6
21.2788 27753.1
21.2942 27776.2
21.3095 27760.7
21.3248 27772.5
21.3401 27780.1
21.3554 27755.6
21.3707 27708.7
21.3861 27739.9
21.4014 27697.7
21.4167 27724.5
21.432 27765.1
21.4473 27761
21.4626 27756
21.478 27728.1
21.4933 27735.6
21.5086 27728.5
21.5239 27755.8
21.5392 27774.4
21.5545 27741.7
21.5699 27703.1
21.5852 27696.3
21.6005 27745.4
21.6158 27755.9
21.6311 27708
21.6464 27688
21.6618 27739.6
21.6771 27749.1
21.6924 27737.5
21.7077 27766
21.723 27787.4
21.7383 27825.8
21.7537 27816.6
21.769 27775.8
21.7843 27758.5
21.7996 27754.8
21.8149 27781.1
21.8302 27774.2
21.8455 27737.1
21.8609 27695.5
21.8762 27728.2
21.8915 27782.3
21.9068 27800.9
21.9221 27788.1
21.9374 27809.4
21.9528 27820.9
21.9681 27820.6
21.9834 27821.7
21.9987 27823.8
22.014 27788.5
22.0293 27829.6
22.0447 27849
22.06 27859.3
22.0753 27891.8
22.0906 27887.1
22.1059 27855.4
22.1212 27888.4
22.1366 27895.1
22.1519 27913.9
22.1672 27907.2
22.1825 27903.6
22.1978 27912.5
22.2131 27937.1
22.2285 27969.6
22.2438 27935.3
22.2591 27875.7
22.2744 27869.7
22.2897 27892.8
22.305 27920.9
22.3204 27988.7
22.3357 28002.7
22.351 27980.8
22.3663 27976.4
22.3816 28029.1
22.3969 28054.7
22.4123 28032.3
22.4276 28035.9
22.4429 28008.2
22.4582 28019.3
22.4735 28037.2
22.4888 28089.5
22.5042 28070.6
22.5195 28045.8
22.5348 28031.6
22.5501 28080.5
22.5654 28077.5
22.5807 28024.2
22.596 28033.9
22.6114 28087.6
22.6267 28084.1
22.642 28060.1
22.6573 28057.9
22.6726 28062.8
22.6879 28084.9
22.7033 28097.7
22.7186 28115.2
22.7339 28121.1
22.7492 28134.5
22.7645 28132.4
22.7798 28129.5
22.7952 28128.1
22.8105 28124.1
22.8258 28101.9
22.8411 28089.8
22.8564 28120
22.8717 28147.3
22.8871 28124.4
22.9024 28180.5
22.9177 28222.6
22.933 28210.6
22.9483 28234.3
22.9636 28290
22.979 28256.4
22.9943 28259.6
