# xPDFsuite Configuration #
[PDF]
wavelength = 0.1
dataformat = QA
inputfile = B3_Bronze-3nm_ss_16.chi
backgroundfile = B3_Li-bkg_ss.chi
mode = xray
bgscale = 0.98705
composition = Ti O2
outputtype = iq
qmaxinst = 23.0
qmin = 0.1
qmax = 23.0
rmax = 30.0
rmin = 0.0
rstep = 0.01
rpoly = 0.9

[Misc]
inputdir = E:/Beamtime/PETRA-III_September-2019/BeamData/processed/Run1/B3/chi/chi_w_sigmas/chi_scaled
savedir = E:/Beamtime/PETRA-III_September-2019/BeamData/processed/Run1/B3
backgroundfilefull = E:/Beamtime/PETRA-III_September-2019/BeamData/processed/Run1/B3/chi/chi_w_sigmas/chi_scaled/B3_Li-bkg_ss.chi

#### start data
#S 1
#L Q($\AA^{-1}$)  intensity(a.u.)
0.111649 0
0.126965 0
0.142282 0
0.157598 0
0.172914 0
0.188231 0
0.203547 0
0.218864 0
0.23418 0
0.249496 0
0.264813 0
0.280129 0
0.295445 0
0.310762 0
0.326078 0
0.341394 0
0.356711 0
0.372027 0
0.387343 0
0.40266 0
0.417976 0
0.433292 0
0.448609 0
0.463925 0
0.479241 0
0.494558 0
0.509874 0
0.525191 0
0.540507 0
0.555823 0
0.57114 0
0.586456 0
0.601772 0
0.617089 0
0.632405 0
0.647721 0
0.663038 0
0.678354 0
0.69367 0
0.708987 0
0.724303 0
0.739619 0
0.754936 0
0.770252 0
0.785568 0
0.800885 0
0.816201 0
0.831518 0
0.846834 0
0.86215 1.44197
0.877467 103528
0.892783 104649
0.908099 105805
0.923416 107731
0.938732 110736
0.954048 113456
0.969365 115278
0.984681 115640
0.999997 114247
1.01531 111427
1.03063 106269
1.04595 100063
1.06126 92445
1.07658 83597.8
1.0919 74888.5
1.10721 65246.6
1.12253 56598
1.13784 48062.7
1.15316 40341.1
1.16848 33689.9
1.18379 27432.2
1.19911 22458.5
1.21443 17898.4
1.22974 14114.2
1.24506 11178.9
1.26038 8815.38
1.27569 7214.04
1.29101 6047.48
1.30632 5470.22
1.32164 5481.39
1.33696 6020.05
1.35227 6994.43
1.36759 8270.76
1.38291 9657.71
1.39822 11431.1
1.41354 13114.7
1.42886 14746.4
1.44417 16264.5
1.45949 17781
1.4748 19512.6
1.49012 21229.9
1.50544 23550.8
1.52075 26526.7
1.53607 30589.8
1.55139 36148.4
1.5667 42701
1.58202 51360.6
1.59733 60822
1.61265 71527
1.62797 82934.8
1.64328 93988.4
1.6586 105070
1.67392 114623
1.68923 122877
1.70455 129171
1.71987 133502
1.73518 136247
1.7505 137700
1.76581 138624
1.78113 138818
1.79645 138687
1.81176 138005
1.82708 136973
1.8424 135260
1.85771 133473
1.87303 131190
1.88835 128751
1.90366 126045
1.91898 123160
1.93429 120323
1.94961 117708
1.96493 115485
1.98024 113588
1.99556 111654
2.01088 109692
2.02619 107024
2.04151 103862
2.05683 99777.5
2.07214 95304.1
2.08746 90687
2.10277 85953.7
2.11809 81633.2
2.13341 77483.2
2.14872 73979.3
2.16404 70917.1
2.17936 68358.4
2.19467 66370.7
2.20999 64761.9
2.22531 63517.1
2.24062 62392.3
2.25594 61403.9
2.27125 60409.7
2.28657 59437.3
2.30189 58484.5
2.3172 57528.8
2.33252 56597
2.34784 55663
2.36315 54833
2.37847 54197.8
2.39379 53564.2
2.4091 53267.8
2.42442 52889.1
2.43973 52811.4
2.45505 52773.5
2.47037 52777.3
2.48568 52918.2
2.501 53099.5
2.51632 53359.9
2.53163 53503.6
2.54695 53666.5
2.56226 53929.4
2.57758 54229
2.5929 54464.3
2.60821 54697.3
2.62353 54851.6
2.63885 54905.9
2.65416 54996.7
2.66948 55062.9
2.6848 55419.3
2.70011 55942.2
2.71543 56930.6
2.73074 58129.7
2.74606 59829.7
2.76138 62010.5
2.77669 64749
2.79201 68235.7
2.80733 72293.7
2.82264 77505.3
2.83796 83754.4
2.85328 91156.5
2.86859 100056
2.88391 109691
2.89922 120726
2.91454 131853
2.92986 142905
2.94517 153229
2.96049 162112
2.97581 169475
2.99112 174532
3.00644 177346
3.02176 177878
3.03707 176362
3.05239 173058
3.0677 168589
3.08302 163321
3.09834 157789
3.11365 152401
3.12897 147199
3.14429 142320
3.1596 137650
3.17492 133464
3.19024 129202
3.20555 125234
3.22087 121192
3.23618 117022
3.2515 112755
3.26682 108238
3.28213 103707
3.29745 98937.7
3.31277 94331.9
3.32808 89858.9
3.3434 85615.1
3.35872 82003
3.37403 78714.8
3.38935 76142.6
3.40466 73992.4
3.41998 72355.5
3.4353 71145.7
3.45061 70267.4
3.46593 69751.1
3.48125 69429.1
3.49656 69350.3
3.51188 69339.4
3.52719 69409.1
3.54251 69515
3.55783 69486.2
3.57314 69322.9
3.58846 68957.3
3.60378 68471.3
3.61909 68037.7
3.63441 67513.2
3.64973 67186.7
3.66504 66966.4
3.68036 67175.8
3.69567 67777.3
3.71099 68790.3
3.72631 70158.3
3.74162 71851.4
3.75694 73778.4
3.77226 75775.6
3.78757 77651.3
3.80289 79252.2
3.81821 80487.2
3.83352 81208.9
3.84884 81451.7
3.86415 81158.5
3.87947 80315.5
3.89479 79083.1
3.9101 77586.2
3.92542 75979.4
3.94074 74502.7
3.95605 73130.5
3.97137 72091.5
3.98669 71268.8
4.002 70783.9
4.01732 70580.9
4.03263 70658.6
4.04795 70995
4.06327 71637.9
4.07858 72514.9
4.0939 73686.3
4.10922 75032.8
4.12453 76556.8
4.13985 78266.5
4.15517 79975.4
4.17048 81663.8
4.1858 83103.4
4.20111 84380.2
4.21643 85444.8
4.23175 86269.1
4.24706 86896.8
4.26238 87337.8
4.2777 87753
4.29301 88123.7
4.30833 88497.2
4.32365 88880.4
4.33896 89184.9
4.35428 89372.7
4.36959 89173.2
4.38491 88603.2
4.40023 87568
4.41554 85961.1
4.43086 83856.6
4.44618 81264.3
4.46149 78292.2
4.47681 75184.5
4.49213 71983.3
4.50744 68920.8
4.52276 66074.7
4.53807 63509.6
4.55339 61289.7
4.56871 59339.2
4.58402 57723
4.59934 56355.7
4.61466 55282.7
4.62997 54550.6
4.64529 54027.3
4.6606 53762.3
4.67592 53702.6
4.69124 53860.1
4.70655 54211.8
4.72187 54701.9
4.73719 55354.8
4.7525 56100.9
4.76782 56903.9
4.78314 57762.8
4.79845 58616.1
4.81377 59475
4.82908 60293.5
4.8444 61110.8
4.85972 61882.2
4.87503 62628.5
4.89035 63332.5
4.90567 64047.2
4.92098 64803.8
4.9363 65669.1
4.95162 66640.5
4.96693 67760.6
4.98225 69176.5
4.99756 71044.2
5.01288 73169.7
5.0282 75382.5
5.04351 77666.1
5.05883 79513.6
5.07415 81000.1
5.08946 81912.3
5.10478 82138.1
5.1201 81928.1
5.13541 81104
5.15073 80121.7
5.16604 78903.4
5.18136 77725
5.19668 76682
5.21199 75918.3
5.22731 75359.6
5.24263 75027.9
5.25794 74654.5
5.27326 74285.8
5.28858 73879.1
5.30389 73501.3
5.31921 73205.9
5.33452 72980.9
5.34984 72876.7
5.36516 72712.5
5.38047 72362.4
5.39579 71652.1
5.41111 70543.7
5.42642 68940.7
5.44174 66959.6
5.45706 64527.5
5.47237 61899.8
5.48769 59104.3
5.503 56436.2
5.51832 54070.6
5.53364 52065.5
5.54895 50595.4
5.56427 49599.3
5.57959 48932.8
5.5949 48605.9
5.61022 48375.7
5.62553 48284.9
5.64085 48132.8
5.65617 47995.3
5.67148 47881
5.6868 47799.1
5.70212 47719.9
5.71743 47591.6
5.73275 47535.3
5.74807 47486.9
5.76338 47510.6
5.7787 47663.2
5.79401 47914.5
5.80933 48368.3
5.82465 48864.5
5.83996 49493.3
5.85528 50190.7
5.8706 50980.2
5.88591 51792.9
5.90123 52596.8
5.91655 53318.8
5.93186 53949.4
5.94718 54403.7
5.96249 54675
5.97781 54798.5
5.99313 54685.5
6.00844 54394.6
6.02376 53898.5
6.03908 53325.9
6.05439 52665.4
6.06971 51985.7
6.08503 51309.5
6.10034 50653.7
6.11566 50135
6.13097 49677.5
6.14629 49309.5
6.16161 49012
6.17692 48834.4
6.19224 48795.8
6.20756 48830.6
6.22287 49008.3
6.23819 49272.3
6.25351 49616.2
6.26882 49977.8
6.28414 50293.3
6.29945 50532.5
6.31477 50629.3
6.33009 50598.8
6.3454 50447.9
6.36072 50169.6
6.37604 49832.3
6.39135 49474.1
6.40667 49165.1
6.42199 48939.3
6.4373 48809.9
6.45262 48787.6
6.46793 48899.6
6.48325 49109.3
6.49857 49377.5
6.51388 49687.5
6.5292 50023.8
6.54452 50395.8
6.55983 50808.7
6.57515 51268.9
6.59046 51777.5
6.60578 52323.7
6.6211 52877.3
6.63641 53438.2
6.65173 53944.6
6.66705 54392.6
6.68236 54777.6
6.69768 55090.1
6.713 55325.9
6.72831 55452
6.74363 55464.5
6.75894 55363.2
6.77426 55214.5
6.78958 55020.2
6.80489 54761.5
6.82021 54411
6.83553 54024.8
6.85084 53583.5
6.86616 53143.6
6.88148 52710
6.89679 52293
6.91211 51873.7
6.92742 51452.5
6.94274 51043
6.95806 50650.5
6.97337 50325.1
6.98869 50050.2
7.00401 49815.6
7.01932 49649.7
7.03464 49498.8
7.04996 49404.2
7.06527 49350.3
7.08059 49361.8
7.0959 49381.2
7.11122 49410.8
7.12654 49406
7.14185 49398.2
7.15717 49369.7
7.17249 49361.4
7.1878 49310.3
7.20312 49319.6
7.21844 49320.8
7.23375 49334.5
7.24907 49358.1
7.26438 49386.4
7.2797 49405.6
7.29502 49408.1
7.31033 49375.5
7.32565 49327.5
7.34097 49242.5
7.35628 49146.2
7.3716 48994.4
7.38692 48776.2
7.40223 48548.2
7.41755 48293.2
7.43286 48056.8
7.44818 47760.5
7.4635 47490.2
7.47881 47212.9
7.49413 46995.3
7.50945 46794.8
7.52476 46592.1
7.54008 46352
7.55539 46087.9
7.57071 45833.3
7.58603 45566
7.60134 45311
7.61666 45043.5
7.63198 44786.8
7.64729 44535.1
7.66261 44307.5
7.67793 44145.2
7.69324 44078.6
7.70856 44087.3
7.72387 44221.2
7.73919 44439.8
7.75451 44721.8
7.76982 44991
7.78514 45231.3
7.80046 45417.1
7.81577 45501.4
7.83109 45444.2
7.84641 45273.9
7.86172 44965.2
7.87704 44580.5
7.89235 44139.7
7.90767 43725.2
7.92299 43300.6
7.9383 42933.1
7.95362 42643.4
7.96894 42433.1
7.98425 42254.6
7.99957 42149.8
8.01489 42077.5
8.0302 42051.2
8.04552 42019.4
8.06083 41983.8
8.07615 41958
8.09147 41934.6
8.10678 41941.9
8.1221 41943.7
8.13742 41961.4
8.15273 41960.6
8.16805 41972
8.18337 42011.8
8.19868 42072.8
8.214 42141.3
8.22931 42197.2
8.24463 42246.6
8.25995 42228.1
8.27526 42158.2
8.29058 42027
8.3059 41902
8.32121 41743.7
8.33653 41585.4
8.35185 41396.3
8.36716 41181.7
8.38248 40996.4
8.39779 40863.1
8.41311 40791.9
8.42843 40734.5
8.44374 40694.5
8.45906 40659.9
8.47438 40665.4
8.48969 40692.1
8.50501 40801.7
8.52032 40930.2
8.53564 41080.1
8.55096 41240.7
8.56627 41401.5
8.58159 41563.9
8.59691 41738.7
8.61222 41935.3
8.62754 42124.3
8.64286 42305.9
8.65817 42481.7
8.67349 42661.1
8.6888 42809.4
8.70412 42963.5
8.71944 43169.9
8.73475 43476.3
8.75007 43866.5
8.76539 44303.5
8.7807 44783.4
8.79602 45193
8.81134 45518.6
8.82665 45717.4
8.84197 45792.5
8.85728 45732.9
8.8726 45577.8
8.88792 45392.3
8.90323 45251.9
8.91855 45196.1
8.93387 45253.2
8.94918 45416.1
8.9645 45612.7
8.97982 45801.7
8.99513 45922.7
9.01045 45959.5
9.02576 45830.1
9.04108 45526.2
9.0564 45051.8
9.07171 44462.7
9.08703 43821.9
9.10235 43171.3
9.11766 42554.7
9.13298 42011.6
9.1483 41565.4
9.16361 41220.3
9.17893 40967
9.19424 40763.2
9.20956 40614.9
9.22488 40473.8
9.24019 40343.5
9.25551 40201.9
9.27083 40062.6
9.28614 39903.1
9.30146 39742
9.31678 39608.3
9.33209 39465.4
9.34741 39335.3
9.36272 39196.2
9.37804 39063.8
9.39336 38961.9
9.40867 38866.4
9.42399 38805.8
9.43931 38797.4
9.45462 38826.7
9.46994 38885.8
9.48525 38960.9
9.50057 39090.9
9.51589 39265.7
9.5312 39448.2
9.54652 39597.1
9.56184 39695.1
9.57715 39729
9.59247 39687.2
9.60779 39589.6
9.6231 39447.1
9.63842 39253.7
9.65373 39053.3
9.66905 38864.2
9.68437 38724.5
9.69968 38620.8
9.715 38546.9
9.73032 38505.8
9.74563 38493.6
9.76095 38540.6
9.77627 38599.2
9.79158 38675.5
9.8069 38744.4
9.82221 38816.6
9.83753 38877.8
9.85285 38924
9.86816 38968.3
9.88348 39028.5
9.8988 39081.7
9.91411 39126.7
9.92943 39209.1
9.94475 39313.8
9.96006 39442.8
9.97538 39563.7
9.99069 39699.3
10.006 39833.3
10.0213 40009.1
10.0366 40169.6
10.052 40343.4
10.0673 40506.7
10.0826 40712.1
10.0979 40923
10.1132 41110.8
10.1285 41321.6
10.1439 41563.6
10.1592 41806.4
10.1745 41990.9
10.1898 42100.8
10.2051 42148.4
10.2204 42134.1
10.2358 42094
10.2511 42060
10.2664 42015.9
10.2817 42067.3
10.297 42183.4
10.3123 42374.6
10.3277 42567.1
10.343 42710.7
10.3583 42757.8
10.3736 42698.6
10.3889 42550.3
10.4042 42348.8
10.4196 42110.2
10.4349 41845
10.4502 41553.5
10.4655 41294.6
10.4808 41090
10.4961 40956.2
10.5115 40867.2
10.5268 40812.5
10.5421 40791.4
10.5574 40833.2
10.5727 40899.4
10.588 40979.4
10.6033 41025.8
10.6187 41028.7
10.634 40972
10.6493 40883.4
10.6646 40719.1
10.6799 40511.2
10.6952 40302.1
10.7106 40115.7
10.7259 39945.6
10.7412 39799.2
10.7565 39689.4
10.7718 39624.5
10.7871 39603.9
10.8025 39584.5
10.8178 39588.8
10.8331 39578.8
10.8484 39538.3
10.8637 39413.5
10.879 39244.9
10.8944 39019.5
10.9097 38739.2
10.925 38465.8
10.9403 38185.3
10.9556 37960.9
10.9709 37775.1
10.9863 37635.4
11.0016 37496.6
11.0169 37342.9
11.0322 37204.7
11.0475 37050.1
11.0628 36910.4
11.0782 36782.6
11.0935 36633.7
11.1088 36468.2
11.1241 36328.4
11.1394 36198.5
11.1547 36108.7
11.1701 36011.3
11.1854 35940.1
11.2007 35865.1
11.216 35785.2
11.2313 35713.7
11.2466 35641.4
11.262 35581.3
11.2773 35546.9
11.2926 35530.5
11.3079 35507.5
11.3232 35493.9
11.3385 35463.4
11.3538 35427.3
11.3692 35396.2
11.3845 35386.2
11.3998 35377.5
11.4151 35358.5
11.4304 35348.4
11.4457 35354.1
11.4611 35373.7
11.4764 35382.9
11.4917 35424.6
11.507 35451.4
11.5223 35511
11.5376 35562.6
11.553 35617.7
11.5683 35649.3
11.5836 35643.3
11.5989 35606.7
11.6142 35586.7
11.6295 35560.3
11.6449 35505.8
11.6602 35441
11.6755 35359
11.6908 35273.4
11.7061 35209.1
11.7214 35163.4
11.7368 35141.3
11.7521 35136.4
11.7674 35174.4
11.7827 35203
11.798 35225
11.8133 35199.2
11.8287 35163
11.844 35138.5
11.8593 35068.9
11.8746 35000.7
11.8899 34982.6
11.9052 34948.2
11.9206 34907.5
11.9359 34883.1
11.9512 34875.5
11.9665 34862.6
11.9818 34863
11.9971 34850
12.0125 34819.4
12.0278 34764.7
12.0431 34726.7
12.0584 34692.1
12.0737 34650
12.089 34595.8
12.1044 34555.1
12.1197 34510.6
12.135 34501.1
12.1503 34489.1
12.1656 34449.8
12.1809 34411.5
12.1962 34387.6
12.2116 34373.7
12.2269 34372.8
12.2422 34349.4
12.2575 34350.5
12.2728 34333.1
12.2881 34316.5
12.3035 34311.9
12.3188 34326.8
12.3341 34320.3
12.3494 34318
12.3647 34324.9
12.38 34344.5
12.3954 34353.4
12.4107 34364
12.426 34362.4
12.4413 34374
12.4566 34398.7
12.4719 34413.6
12.4873 34418.7
12.5026 34392.4
12.5179 34384.8
12.5332 34374.2
12.5485 34387.6
12.5638 34382.3
12.5792 34374.1
12.5945 34370.9
12.6098 34371.1
12.6251 34394.7
12.6404 34431.1
12.6557 34433.5
12.6711 34444.6
12.6864 34442.5
12.7017 34430
12.717 34401.4
12.7323 34390.6
12.7476 34393.5
12.763 34436.8
12.7783 34489.7
12.7936 34529.1
12.8089 34572.1
12.8242 34632.5
12.8395 34682.4
12.8549 34717.2
12.8702 34695.7
12.8855 34610.3
12.9008 34515.4
12.9161 34430.9
12.9314 34349.4
12.9467 34244.3
12.9621 34182.2
12.9774 34151.7
12.9927 34138.1
13.008 34137.6
13.0233 34130.7
13.0386 34137
13.054 34157.1
13.0693 34169.5
13.0846 34177.5
13.0999 34200.3
13.1152 34214.3
13.1305 34211.9
13.1459 34205.3
13.1612 34203
13.1765 34185.9
13.1918 34169.2
13.2071 34175.2
13.2224 34202.4
13.2378 34214.9
13.2531 34230.4
13.2684 34269.4
13.2837 34284.3
13.299 34290.6
13.3143 34306.9
13.3297 34321.7
13.345 34343.2
13.3603 34391.1
13.3756 34468.2
13.3909 34579.4
13.4062 34700.4
13.4216 34877.1
13.4369 35044.7
13.4522 35214.9
13.4675 35385.6
13.4828 35501.8
13.4981 35570.1
13.5135 35617.2
13.5288 35624.6
13.5441 35649.7
13.5594 35715.1
13.5747 35753.1
13.59 35754.7
13.6054 35739.7
13.6207 35679.9
13.636 35556
13.6513 35377.7
13.6666 35181.2
13.6819 34989.3
13.6973 34809.6
13.7126 34645.9
13.7279 34508.4
13.7432 34389.5
13.7585 34284.9
13.7738 34183.1
13.7891 34100.5
13.8045 34044.3
13.8198 34002
13.8351 33963.7
13.8504 33933.5
13.8657 33916
13.881 33914.8
13.8964 33923.5
13.9117 33941.2
13.927 33946.1
13.9423 33968.2
13.9576 34016.7
13.9729 34014.7
13.9883 33983.5
14.0036 33925.9
14.0189 33855.6
14.0342 33745.6
14.0495 33616.3
14.0648 33464.9
14.0802 33333.8
14.0955 33216.3
14.1108 33111.2
14.1261 33003.1
14.1414 32909.8
14.1567 32820.1
14.1721 32734.7
14.1874 32687.9
14.2027 32637.3
14.218 32613.1
14.2333 32610.2
14.2486 32609.6
14.264 32608.2
14.2793 32602.2
14.2946 32584.6
14.3099 32543.6
14.3252 32509.9
14.3405 32495.5
14.3559 32485.5
14.3712 32463.2
14.3865 32430.2
14.4018 32408.7
14.4171 32372.2
14.4324 32330.5
14.4478 32305
14.4631 32269.8
14.4784 32263.2
14.4937 32274.4
14.509 32270.9
14.5243 32275.7
14.5397 32275.9
14.555 32294.7
14.5703 32300.4
14.5856 32283.9
14.6009 32264.3
14.6162 32243.9
14.6315 32195
14.6469 32149.7
14.6622 32133.1
14.6775 32122.8
14.6928 32089.6
14.7081 32029.6
14.7234 31994.6
14.7388 31949.7
14.7541 31902
14.7694 31836.8
14.7847 31796.3
14.8 31776.4
14.8153 31751.4
14.8307 31706.2
14.846 31668.2
14.8613 31626.6
14.8766 31595
14.8919 31570.8
14.9072 31557.5
14.9226 31533.5
14.9379 31480.1
14.9532 31441.5
14.9685 31440.9
14.9838 31440.8
14.9991 31438.1
15.0145 31416.1
15.0298 31405.4
15.0451 31389.8
15.0604 31389.5
15.0757 31406.1
15.091 31429.3
15.1064 31440.6
15.1217 31422.8
15.137 31406.7
15.1523 31423.6
15.1676 31475.8
15.1829 31492.3
15.1983 31513.8
15.2136 31526.7
15.2289 31542.2
15.2442 31581
15.2595 31615.7
15.2748 31643.8
15.2902 31685.4
15.3055 31702.5
15.3208 31689.7
15.3361 31710.9
15.3514 31749.3
15.3667 31767.8
15.382 31769.5
15.3974 31776.7
15.4127 31766.8
15.428 31730.8
15.4433 31686.4
15.4586 31625.2
15.4739 31556.1
15.4893 31513.4
15.5046 31498.6
15.5199 31482.2
15.5352 31492.3
15.5505 31474.7
15.5658 31441.4
15.5812 31401.9
15.5965 31395
15.6118 31371.2
15.6271 31361.2
15.6424 31333.5
15.6577 31303.5
15.6731 31296
15.6884 31272.9
15.7037 31279.1
15.719 31270.8
15.7343 31234.8
15.7496 31208.9
15.765 31159.2
15.7803 31138.6
15.7956 31110.8
15.8109 31064.5
15.8262 31050
15.8415 31032.1
15.8569 30990.6
15.8722 30951.4
15.8875 30912.6
15.9028 30856.3
15.9181 30793.6
15.9334 30747.4
15.9488 30693.4
15.9641 30667.2
15.9794 30654.6
15.9947 30631.1
16.01 30584.9
16.0253 30572.5
16.0407 30561.5
16.056 30536.1
16.0713 30512.9
16.0866 30485.4
16.1019 30493.7
16.1172 30504.9
16.1326 30513.2
16.1479 30514.7
16.1632 30530.5
16.1785 30525.6
16.1938 30508
16.2091 30506.9
16.2244 30507.7
16.2398 30488.1
16.2551 30507.3
16.2704 30525.4
16.2857 30553.1
16.301 30548.3
16.3163 30521.9
16.3317 30477.5
16.347 30458.8
16.3623 30449
16.3776 30440.9
16.3929 30415.7
16.4082 30346.9
16.4236 30342.5
16.4389 30393
16.4542 30358.6
16.4695 30301.2
16.4848 30268.9
16.5001 30273.8
16.5155 30291.6
16.5308 30259.4
16.5461 30207
16.5614 30170.4
16.5767 30126.1
16.592 30076.1
16.6074 30006.5
16.6227 29980.9
16.638 29964.2
16.6533 29944.4
16.6686 29913.4
16.6839 29858.2
16.6993 29813.7
16.7146 29795.2
16.7299 29785.9
16.7452 29752.6
16.7605 29725.5
16.7758 29713.8
16.7912 29686.7
16.8065 29669.4
16.8218 29659.5
16.8371 29660.1
16.8524 29630.7
16.8677 29632
16.8831 29603
16.8984 29560.9
16.9137 29513.4
16.929 29490.3
16.9443 29511.1
16.9596 29495.9
16.9749 29500.5
16.9903 29501.7
17.0056 29494.3
17.0209 29440.5
17.0362 29391.1
17.0515 29391.5
17.0668 29381.3
17.0822 29378.3
17.0975 29372.7
17.1128 29355.2
17.1281 29325.4
17.1434 29285.3
17.1587 29253.3
17.1741 29223.1
17.1894 29193.5
17.2047 29196.2
17.22 29191.9
17.2353 29193.6
17.2506 29188.1
17.266 29144.4
17.2813 29127.8
17.2966 29133.4
17.3119 29114.2
17.3272 29075.6
17.3425 29047.1
17.3579 29048.5
17.3732 29028.6
17.3885 29031.7
17.4038 29043.5
17.4191 29031.1
17.4344 28993.4
17.4498 28968.2
17.4651 28983.5
17.4804 28997
17.4957 29012
17.511 28976.7
17.5263 28944.9
17.5417 28941.7
17.557 28952.7
17.5723 28973.4
17.5876 28958.6
17.6029 28956.3
17.6182 28954.4
17.6336 28950.3
17.6489 28952.1
17.6642 28989
17.6795 28993.2
17.6948 28990.3
17.7101 29009.4
17.7255 29005.6
17.7408 28994.8
17.7561 28987
17.7714 28990.5
17.7867 28978.2
17.802 28965.1
17.8173 28950.6
17.8327 28912.5
17.848 28887.6
17.8633 28895.2
17.8786 28874.5
17.8939 28873.2
17.9092 28879.6
17.9246 28884.3
17.9399 28870.7
17.9552 28848.2
17.9705 28829.8
17.9858 28833.5
18.0011 28837
18.0165 28840.5
18.0318 28816.1
18.0471 28810.5
18.0624 28803.4
18.0777 28779.9
18.093 28767.3
18.1084 28778
18.1237 28768.8
18.139 28766.3
18.1543 28728.8
18.1696 28706.2
18.1849 28700
18.2003 28708.6
18.2156 28731.7
18.2309 28720.7
18.2462 28727.7
18.2615 28746
18.2768 28734.2
18.2922 28708.4
18.3075 28727.5
18.3228 28734.5
18.3381 28751.7
18.3534 28762
18.3687 28787.6
18.3841 28837.7
18.3994 28860
18.4147 28880
18.43 28876.3
18.4453 28849.8
18.4606 28829.6
18.476 28821.6
18.4913 28804.7
18.5066 28765.8
18.5219 28741.5
18.5372 28708.4
18.5525 28667
18.5679 28629.1
18.5832 28603.9
18.5985 28579.9
18.6138 28554
18.6291 28552.1
18.6444 28507.9
18.6597 28474.2
18.6751 28460.2
18.6904 28470.9
18.7057 28447.3
18.721 28432.2
18.7363 28415.5
18.7516 28434.2
18.767 28454.1
18.7823 28419.9
18.7976 28357.9
18.8129 28315.9
18.8282 28313.1
18.8435 28309
18.8589 28264.6
18.8742 28231.4
18.8895 28201.3
18.9048 28180.4
18.9201 28144.8
18.9354 28124.1
18.9508 28144.1
18.9661 28172.3
18.9814 28131.7
18.9967 28052.6
19.012 27959.3
19.0273 27946.1
19.0427 27982
19.058 27958.4
19.0733 27929.5
19.0886 27895.2
19.1039 27868.6
19.1192 27856.2
19.1346 27853.4
19.1499 27861.6
19.1652 27873.3
19.1805 27860.4
19.1958 27886.2
19.2111 27920.4
19.2265 27897.6
19.2418 27907.4
19.2571 27897
19.2724 27839
19.2877 27809.2
19.303 27814
19.3184 27748.4
19.3337 27651.5
19.349 27682.3
19.3643 27670.7
19.3796 27615.5
19.3949 27566.7
19.4102 27578.7
19.4256 27587
19.4409 27549.5
19.4562 27529.8
19.4715 27527.3
19.4868 27524.9
19.5021 27498.2
19.5175 27501.9
19.5328 27501.8
19.5481 27467.3
19.5634 27440.2
19.5787 27422.4
19.594 27387.6
19.6094 27382.1
19.6247 27408.1
19.64 27427.3
19.6553 27412.8
19.6706 27383.8
19.6859 27360
19.7013 27330.1
19.7166 27342.1
19.7319 27358.9
19.7472 27335.9
19.7625 27290.1
19.7778 27242.5
19.7932 27234.1
19.8085 27252.3
19.8238 27239
19.8391 27222.6
19.8544 27211.1
19.8697 27195.6
19.8851 27202.7
19.9004 27211
19.9157 27179.4
19.931 27193.8
19.9463 27237.6
19.9616 27191
19.977 27167.4
19.9923 27191.3
20.0076 27144.1
20.0229 27109.6
20.0382 27123.1
20.0535 27112.6
20.0689 27102.8
20.0842 27105.1
20.0995 27091.9
20.1148 27047
20.1301 27042.9
20.1454 27025.5
20.1608 27043.9
20.1761 27056.7
20.1914 27044.5
20.2067 26987
20.222 26964
20.2373 26993.4
20.2526 27029.3
20.268 27026.8
20.2833 27021.1
20.2986 27028.7
20.3139 27023.4
20.3292 27006.1
20.3445 26994.7
20.3599 27004.8
20.3752 27000.1
20.3905 27006.3
20.4058 27025.6
20.4211 26998.6
20.4364 26996.4
20.4518 27009
20.4671 26996
20.4824 27016.4
20.4977 27030.4
20.513 27010.5
20.5283 26997.7
20.5437 27011.7
20.559 27000.7
20.5743 26963.2
20.5896 26959.4
20.6049 26970.5
20.6202 26950.9
20.6356 26926.3
20.6509 26941.8
20.6662 26935.4
20.6815 26939.1
20.6968 26923.1
20.7121 26890.9
20.7275 26888.9
20.7428 26908
20.7581 26913.8
20.7734 26913
20.7887 26889.9
20.804 26817.5
20.8194 26842.4
20.8347 26846.3
20.85 26853.9
20.8653 26857.6
20.8806 26830.8
20.8959 26816.5
20.9113 26849.3
20.9266 26864.1
20.9419 26835.5
20.9572 26810.1
20.9725 26810.4
20.9878 26779.6
21.0031 26737.1
21.0185 26788.7
21.0338 26818.6
21.0491 26802.9
21.0644 26811.8
21.0797 26803.8
21.095 26791
21.1104 26799.9
21.1257 26815.8
21.141 26828.8
21.1563 26799.4
21.1716 26777.5
21.1869 26797
21.2023 26833.6
21.2176 26791.9
21.2329 26796.9
21.2482 26829.5
21.2635 26793.3
21.2788 26785.2
21.2942 26782.5
21.3095 26728.2
21.3248 26750.2
21.3401 26774
21.3554 26780.8
21.3707 26728.1
21.3861 26752.9
21.4014 26707.1
21.4167 26686.6
21.432 26731.9
21.4473 26743.6
21.4626 26718.9
21.478 26693.5
21.4933 26745.6
21.5086 26778.5
21.5239 26818.4
21.5392 26811.2
21.5545 26780.2
21.5699 26756.6
21.5852 26761.2
21.6005 26789.5
21.6158 26789.3
21.6311 26723.2
21.6464 26704.6
21.6618 26728.9
21.6771 26760.9
21.6924 26736.8
21.7077 26733.2
21.723 26752.3
21.7383 26784.3
21.7537 26823.7
21.769 26810.9
21.7843 26800.4
21.7996 26774.3
21.8149 26791.7
21.8302 26785.2
21.8455 26796.4
21.8609 26801.6
21.8762 26798.1
21.8915 26839.3
21.9068 26864.4
21.9221 26871.2
21.9374 26858.4
21.9528 26835.4
21.9681 26826
21.9834 26854.8
21.9987 26875
22.014 26812.2
22.0293 26834.3
22.0447 26922.9
22.06 26939.4
22.0753 26941.5
22.0906 26952.5
22.1059 26942.4
22.1212 26960.5
22.1366 26949.7
22.1519 26927
22.1672 26919.2
22.1825 26925.3
22.1978 26987.8
22.2131 26966.4
22.2285 26949.9
22.2438 26956.6
22.2591 26940.5
22.2744 26915.8
22.2897 26924.7
22.305 26968.1
22.3204 27043.7
22.3357 27079.8
22.351 27089.7
22.3663 27041.7
22.3816 27088
22.3969 27124.9
22.4123 27064.1
22.4276 27072.4
22.4429 27074.3
22.4582 27038.3
22.4735 27077.6
22.4888 27127.7
22.5042 27078.9
22.5195 27084
22.5348 27080.6
22.5501 27100.9
22.5654 27071.6
22.5807 27061.5
22.596 27075.5
22.6114 27118.3
22.6267 27100.4
22.642 27115
22.6573 27138.2
22.6726 27081.7
22.6879 27105.6
22.7033 27162.1
22.7186 27113.9
22.7339 27101.4
22.7492 27112.7
22.7645 27155.9
22.7798 27175.5
22.7952 27145.1
22.8105 27137.8
22.8258 27166.5
22.8411 27183.4
22.8564 27190.2
22.8717 27212.6
22.8871 27211.6
22.9024 27232.1
22.9177 27219.4
22.933 27233.8
22.9483 27257.7
22.9636 27278
22.979 27285.5
22.9943 27343.2
